File: EXPERIMENTAL/DATA/month-old_I-cell_passivation/2024-06-11_Exploration-measurement-moth-old-I-cells/2024-06-11_month-old-I-cell_built-2024-05-16-old-OCV-2.2V_deltaX-110.0mm_04_CP_C04.txt
time/s	Ewe/V	I/mA	error
18060.2	-0.00469451	-0.19473	0
18060.2	-0.0152569	-0.195979	0
18060.2	-0.0183304	-0.195979	0
18060.2	-0.0207166	-0.195982	0
18060.2	-0.0228547	-0.195983	0
18060.2	-0.0250119	-0.195984	0
18060.2	-0.0272646	-0.19597	0
18060.2	-0.0297081	-0.195984	0
18060.2	-0.0319035	-0.195977	0
18060.2	-0.034347	-0.195974	0
18060.2	-0.0365996	-0.195982	0
18060.2	-0.0388714	-0.19598	0
18060.2	-0.040914	-0.195985	0
18060.2	-0.0431094	-0.195983	0
18060.2	-0.0455529	-0.195984	0
18060.2	-0.0478437	-0.195983	0
18060.2	-0.0500773	-0.195981	0
18060.2	-0.0522344	-0.195979	0
18060.2	-0.0543535	-0.195979	0
18060.2	-0.0565488	-0.195986	0
18060.2	-0.0587633	-0.195982	0
18060.2	-0.0609777	-0.19598	0
18060.2	-0.0632304	-0.195978	0
18060.2	-0.0652921	-0.195973	0
18060.3	-0.0674684	-0.195984	0
18060.3	-0.0696446	-0.195981	0
18060.3	-0.0718209	-0.195983	0
18060.3	-0.074169	-0.19598	0
18060.3	-0.0765744	-0.195979	0
18060.3	-0.0787315	-0.195977	0
18060.3	-0.0808887	-0.195979	0
18060.3	-0.083065	-0.195975	0
18060.3	-0.0851649	-0.195981	0
18060.3	-0.087303	-0.195979	0
18060.3	-0.0895175	-0.195978	0
18060.3	-0.0918465	-0.195984	0
18060.3	-0.0940227	-0.195979	0
18060.3	-0.0961036	-0.195979	0
18060.3	-0.0982226	-0.195979	0
18060.3	-0.100322	-0.195984	0
18060.3	-0.102499	-0.195977	0
18060.3	-0.104675	-0.195986	0
18060.3	-0.10687	-0.195984	0
18060.3	-0.108989	-0.195977	0
18060.3	-0.111185	-0.195984	0
18060.3	-0.113323	-0.195981	0
18060.3	-0.115499	-0.195977	0
18060.3	-0.117637	-0.195986	0
18060.3	-0.119775	-0.195983	0
18060.3	-0.121932	-0.195981	0
18060.3	-0.124032	-0.195977	0
18060.4	-0.126228	-0.195971	0
18060.4	-0.12827	-0.195981	0
18060.4	-0.130409	-0.195974	0
18060.4	-0.132489	-0.195979	0
18060.4	-0.134627	-0.195981	0
18060.4	-0.136766	-0.19598	0
18060.4	-0.138846	-0.195984	0
18060.4	-0.140965	-0.195975	0
18060.4	-0.143027	-0.19598	0
18060.4	-0.145222	-0.19598	0
18060.4	-0.147361	-0.195974	0
18060.4	-0.149499	-0.195979	0
18060.4	-0.151637	-0.195982	0
18060.4	-0.153756	-0.195979	0
18060.4	-0.155856	-0.195986	0
18060.4	-0.158032	-0.195982	0
18060.4	-0.160208	-0.195977	0
18060.5	-0.162327	-0.195982	0
18060.5	-0.164446	-0.195977	0
18060.5	-0.166584	-0.19598	0
18060.5	-0.168665	-0.195977	0
18060.5	-0.170784	-0.195982	0
18060.5	-0.172846	-0.195979	0
18060.5	-0.174908	-0.195977	0
18060.5	-0.176988	-0.195978	0
18060.5	-0.179279	-0.195979	0
18060.5	-0.181532	-0.195981	0
18060.5	-0.183727	-0.195979	0
18060.6	-0.185884	-0.195982	0
18060.6	-0.187927	-0.195985	0
18060.6	-0.190008	-0.19598	0
18060.6	-0.192165	-0.195986	0
18060.6	-0.194189	-0.195981	0
18060.6	-0.196289	-0.195982	0
18060.7	-0.194208	-0.195982	0
18060.7	-0.191974	-0.195981	0
18060.7	-0.189798	-0.195981	0
18060.8	-0.187736	-0.195988	0
18060.8	-0.185674	-0.195981	0
18060.8	-0.183422	-0.195982	0
18060.8	-0.18136	-0.195978	0
18060.8	-0.179165	-0.19598	0
18060.8	-0.177122	-0.195982	0
18060.8	-0.175041	-0.195977	0
18060.8	-0.17296	-0.195984	0
18060.8	-0.170899	-0.195979	0
18060.9	-0.168837	-0.195982	0
18060.9	-0.166756	-0.195981	0
18060.9	-0.164637	-0.195982	0
18060.9	-0.162575	-0.19598	0
18060.9	-0.160533	-0.195984	0
18060.9	-0.158414	-0.195984	0
18060.9	-0.156276	-0.195991	0
18061	-0.154176	-0.195983	0
18061	-0.152095	-0.195984	0
18061	-0.149957	-0.195982	0
18061	-0.147838	-0.195981	0
18061	-0.1457	-0.195979	0
18061.1	-0.1436	-0.195982	0
18061.1	-0.141538	-0.195981	0
18061.1	-0.139457	-0.195984	0
18061.2	-0.1373	-0.19598	0
18061.2	-0.135219	-0.195981	0
18061.3	-0.133157	-0.195987	0
18061.3	-0.131077	-0.195982	0
18061.4	-0.129053	-0.195981	0
18061.6	-0.126953	-0.195977	0
18061.9	-0.124872	-0.195982	0
18063.1	-0.12283	-0.195983	0
18075.9	-0.121322	-0.195983	0
18095.9	-0.12136	-0.195984	0
18115.9	-0.120978	-0.195984	0
18135.9	-0.120348	-0.195977	0
18155.9	-0.119394	-0.195985	0
18175.9	-0.118458	-0.195981	0
18195.9	-0.117427	-0.195983	0
18215.9	-0.116244	-0.195986	0
18235.9	-0.115289	-0.195986	0
18255.9	-0.114144	-0.195987	0
18275.9	-0.112998	-0.195981	0
18295.9	-0.111967	-0.195989	0
18315.9	-0.110937	-0.195981	0
18335.9	-0.11002	-0.195985	0
18355.9	-0.109085	-0.195982	0
18375.9	-0.108264	-0.195982	0
18395.9	-0.107539	-0.195979	0
18415.9	-0.106679	-0.195985	0
18435.9	-0.105859	-0.195983	0
18455.9	-0.105038	-0.195984	0
18475.9	-0.104331	-0.19599	0
18495.9	-0.103663	-0.195984	0
18515.9	-0.103052	-0.195987	0
18535.9	-0.102346	-0.195986	0
18555.9	-0.101773	-0.195979	0
18575.9	-0.101277	-0.195986	0
18595.9	-0.100666	-0.195987	0
18615.9	-0.100246	-0.195985	0
18635.9	-0.0997689	-0.195988	0
18655.9	-0.0993489	-0.195988	0
18675.9	-0.0988334	-0.195986	0
18695.9	-0.0983753	-0.195984	0
18715.9	-0.0980508	-0.195982	0
18735.9	-0.0975544	-0.195986	0
18755.9	-0.0973062	-0.19599	0
18775.9	-0.0968672	-0.195983	0
18795.9	-0.0964663	-0.195986	0
18815.9	-0.096199	-0.195984	0
18835.9	-0.0957027	-0.195986	0
18855.9	-0.0952827	-0.195986	0
18875.9	-0.0949009	-0.195981	0
18895.9	-0.0948436	-0.195984	0
18915.9	-0.0944809	-0.195986	0
18935.9	-0.09408	-0.195983	0
18955.9	-0.0937937	-0.195989	0
18975.9	-0.0935264	-0.195979	0
18995.9	-0.09324	-0.195986	0
19015.9	-0.0932209	-0.195986	0
19035.9	-0.0930873	-0.195986	0
19055.9	-0.0927055	-0.195981	0
19075.9	-0.0924573	-0.195985	0
19095.9	-0.0922664	-0.195988	0
19115.9	-0.0920183	-0.195983	0
19135.9	-0.0916937	-0.195986	0
19155.9	-0.0915792	-0.195984	0
19175.9	-0.0911974	-0.195982	0
19195.9	-0.0910256	-0.195986	0
19215.9	-0.0907583	-0.195984	0
19235.9	-0.0904911	-0.195992	0
19255.9	-0.0904529	-0.195983	0
19275.9	-0.0900711	-0.195984	0
19295.9	-0.0898229	-0.195984	0
19315.9	-0.0897084	-0.195986	0
19335.9	-0.0894793	-0.195986	0
19355.9	-0.0892502	-0.195982	0
19375.9	-0.0891548	-0.195983	0
19395.9	-0.0889066	-0.195985	0
19415.9	-0.088792	-0.195987	0
19435.9	-0.088563	-0.195988	0
19455.9	-0.0884293	-0.195984	0
19475.9	-0.0882193	-0.195982	0
19495.9	-0.0882766	-0.195987	0
19515.9	-0.0880857	-0.195986	0
19535.9	-0.0878375	-0.195984	0
19555.9	-0.0876848	-0.195986	0
19575.9	-0.0874748	-0.195983	0
19595.9	-0.0872267	-0.195986	0
19615.9	-0.0871312	-0.195984	0
19635.9	-0.0871312	-0.195985	0
19655.9	-0.0869976	-0.195981	0
19675.9	-0.0867876	-0.19598	0
19695.9	-0.0865585	-0.195981	0
19715.9	-0.0863867	-0.195982	0
19735.9	-0.0862721	-0.195988	0
19755.9	-0.0860812	-0.195987	0
19775.9	-0.0858712	-0.195984	0
19795.9	-0.085814	-0.195984	0
19815.9	-0.0855658	-0.195981	0
19835.9	-0.0854894	-0.195991	0
19855.9	-0.0854322	-0.195981	0
19860.2	-0.0854704	-0.195982	0