File: EXPERIMENTAL/DATA/month-old_I-cell_passivation/2024-06-11_Exploration-measurement-moth-old-I-cells/2024-06-11_month-old-I-cell_built-2024-05-16-old-OCV-2.5V_deltaX-110.3mm_04_CP_C02.txt
time/s	Ewe/V	I/mA	error
18060.2	-0.00602499	-0.194556	0
18060.2	-0.0203192	-0.195963	0
18060.2	-0.0236979	-0.195963	0
18060.2	-0.026752	-0.195963	0
18060.2	-0.0290617	-0.195964	0
18060.2	-0.0318486	-0.195966	0
18060.2	-0.03433	-0.195967	0
18060.2	-0.0366397	-0.195968	0
18060.2	-0.0387776	-0.195968	0
18060.2	-0.0415263	-0.195965	0
18060.2	-0.0440651	-0.195959	0
18060.2	-0.0463366	-0.19597	0
18060.2	-0.0486844	-0.195962	0
18060.2	-0.0510705	-0.195967	0
18060.2	-0.0535329	-0.195968	0
18060.2	-0.0557089	-0.195968	0
18060.2	-0.0580568	-0.195966	0
18060.2	-0.0604428	-0.195964	0
18060.2	-0.0629816	-0.195961	0
18060.2	-0.0652913	-0.195964	0
18060.2	-0.0673146	-0.195959	0
18060.2	-0.0697007	-0.195966	0
18060.2	-0.0720867	-0.195965	0
18060.2	-0.0741483	-0.195967	0
18060.2	-0.0764007	-0.195961	0
18060.2	-0.0785004	-0.195962	0
18060.2	-0.0809819	-0.195969	0
18060.2	-0.083177	-0.195967	0
18060.2	-0.0854676	-0.195963	0
18060.3	-0.0875292	-0.195959	0
18060.3	-0.089648	-0.195968	0
18060.3	-0.0922058	-0.195964	0
18060.3	-0.0945918	-0.195961	0
18060.3	-0.0967679	-0.195966	0
18060.3	-0.0989058	-0.195964	0
18060.3	-0.10112	-0.195956	0
18060.3	-0.103296	-0.195964	0
18060.3	-0.105472	-0.195959	0
18060.3	-0.107534	-0.195959	0
18060.3	-0.109901	-0.19597	0
18060.3	-0.112153	-0.195965	0
18060.3	-0.114348	-0.195968	0
18060.3	-0.116505	-0.195964	0
18060.3	-0.118529	-0.195968	0
18060.3	-0.120724	-0.19597	0
18060.3	-0.122785	-0.195964	0
18060.3	-0.124942	-0.195966	0
18060.3	-0.127118	-0.19597	0
18060.3	-0.129371	-0.195968	0
18060.3	-0.131566	-0.195964	0
18060.3	-0.133723	-0.195963	0
18060.3	-0.136013	-0.195965	0
18060.3	-0.138056	-0.195966	0
18060.3	-0.140213	-0.19597	0
18060.3	-0.142313	-0.195963	0
18060.3	-0.144431	-0.195963	0
18060.3	-0.146607	-0.195967	0
18060.3	-0.148803	-0.195963	0
18060.3	-0.151036	-0.195963	0
18060.3	-0.153174	-0.195961	0
18060.3	-0.155293	-0.195971	0
18060.4	-0.157488	-0.195959	0
18060.4	-0.159664	-0.195968	0
18060.4	-0.161878	-0.195966	0
18060.4	-0.163959	-0.195966	0
18060.4	-0.166039	-0.195966	0
18060.4	-0.16812	-0.19596	0
18060.4	-0.170182	-0.195961	0
18060.4	-0.172319	-0.195973	0
18060.4	-0.1744	-0.195966	0
18060.4	-0.176595	-0.195964	0
18060.4	-0.178657	-0.195965	0
18060.4	-0.180852	-0.195967	0
18060.4	-0.183047	-0.19597	0
18060.4	-0.185128	-0.195959	0
18060.4	-0.187361	-0.195968	0
18060.5	-0.189423	-0.195962	0
18060.5	-0.191522	-0.195961	0
18060.5	-0.193641	-0.195964	0
18060.5	-0.195817	-0.195964	0
18060.5	-0.197879	-0.19597	0
18060.6	-0.197879	-0.195973	0
18060.6	-0.195779	-0.195966	0
18060.6	-0.193641	-0.195967	0
18060.6	-0.191541	-0.195968	0
18060.6	-0.189403	-0.195969	0
18060.6	-0.187227	-0.195969	0
18060.6	-0.185147	-0.19597	0
18060.7	-0.183085	-0.195966	0
18060.7	-0.181005	-0.195964	0
18060.7	-0.178943	-0.195957	0
18060.7	-0.176786	-0.195965	0
18060.7	-0.174725	-0.195969	0
18060.7	-0.172606	-0.195966	0
18060.7	-0.170563	-0.195966	0
18060.7	-0.168425	-0.195963	0
18060.7	-0.166326	-0.195965	0
18060.7	-0.164264	-0.195963	0
18060.7	-0.162222	-0.195964	0
18060.7	-0.160007	-0.19596	0
18060.7	-0.157946	-0.195963	0
18060.8	-0.155827	-0.195972	0
18060.8	-0.15367	-0.195968	0
18060.8	-0.151437	-0.195966	0
18060.8	-0.149394	-0.195967	0
18060.8	-0.147276	-0.195967	0
18060.8	-0.14508	-0.19597	0
18060.8	-0.143057	-0.195963	0
18060.8	-0.140919	-0.195966	0
18060.9	-0.138839	-0.195959	0
18060.9	-0.136796	-0.195964	0
18060.9	-0.134715	-0.195969	0
18060.9	-0.132654	-0.195968	0
18060.9	-0.130554	-0.195964	0
18061	-0.128531	-0.195964	0
18061	-0.126469	-0.195968	0
18061	-0.124389	-0.19597	0
18061.1	-0.122289	-0.195966	0
18061.2	-0.120132	-0.195964	0
18061.3	-0.118013	-0.195967	0
18061.6	-0.11599	-0.195971	0
18063.3	-0.118032	-0.195966	0
18065	-0.120075	-0.195966	0
18076.5	-0.121125	-0.195967	0
18096.5	-0.11996	-0.195969	0
18116.5	-0.120056	-0.195969	0
18136.5	-0.120323	-0.195968	0
18156.5	-0.120743	-0.19597	0
18176.5	-0.121163	-0.195966	0
18196.5	-0.121506	-0.195968	0
18216.5	-0.121735	-0.195974	0
18236.5	-0.121774	-0.195968	0
18256.5	-0.121506	-0.195969	0
18276.5	-0.121525	-0.195971	0
18296.5	-0.121354	-0.195968	0
18316.5	-0.121048	-0.195963	0
18336.5	-0.120705	-0.195973	0
18356.5	-0.120495	-0.19597	0
18376.5	-0.120151	-0.195969	0
18396.5	-0.119598	-0.19597	0
18416.5	-0.119292	-0.19597	0
18436.5	-0.119082	-0.195968	0
18456.5	-0.118624	-0.19597	0
18476.5	-0.118204	-0.19597	0
18496.5	-0.117822	-0.195971	0
18516.5	-0.117555	-0.195968	0
18536.5	-0.117211	-0.195972	0
18556.5	-0.116944	-0.195969	0
18576.5	-0.116677	-0.195971	0
18596.5	-0.11641	-0.19597	0
18616.5	-0.116123	-0.195971	0
18636.5	-0.115933	-0.19597	0
18656.5	-0.115608	-0.195969	0
18676.5	-0.115322	-0.195972	0
18696.5	-0.115226	-0.195966	0
18716.5	-0.114883	-0.195967	0
18736.5	-0.114825	-0.195972	0
18756.5	-0.114539	-0.195972	0
18776.5	-0.11431	-0.195973	0
18796.5	-0.114196	-0.195968	0
18816.5	-0.114005	-0.195966	0
18836.5	-0.113909	-0.195966	0
18856.5	-0.113661	-0.195965	0
18876.5	-0.113489	-0.19597	0
18896.5	-0.113337	-0.19597	0
18916.5	-0.113069	-0.195975	0
18936.5	-0.112878	-0.195974	0
18956.5	-0.112802	-0.195974	0
18976.5	-0.11263	-0.19597	0
18996.5	-0.112401	-0.195966	0
19016.5	-0.112306	-0.195973	0
19036.5	-0.112191	-0.195977	0
19056.5	-0.112191	-0.195969	0
19076.5	-0.111886	-0.195967	0
19096.5	-0.111848	-0.195972	0
19116.5	-0.111657	-0.195969	0
19136.5	-0.111485	-0.195969	0
19156.5	-0.11139	-0.19597	0
19176.5	-0.111313	-0.195971	0
19196.5	-0.111199	-0.195973	0
19216.5	-0.111027	-0.195973	0
19236.5	-0.110836	-0.195973	0
19256.5	-0.110912	-0.195969	0
19276.5	-0.110721	-0.195971	0
19296.5	-0.110531	-0.195973	0
19316.5	-0.110473	-0.195973	0
19336.5	-0.110378	-0.195968	0
19356.5	-0.110321	-0.195973	0
19376.5	-0.110111	-0.195969	0
19396.5	-0.109939	-0.195968	0
19416.5	-0.109958	-0.19597	0
19436.5	-0.109862	-0.195971	0
19456.5	-0.109672	-0.195968	0
19476.5	-0.109538	-0.19597	0
19496.5	-0.109347	-0.195967	0
19516.5	-0.109271	-0.195975	0
19536.5	-0.109309	-0.195969	0
19556.5	-0.109233	-0.195972	0
19576.5	-0.109061	-0.195976	0
19596.5	-0.108946	-0.195975	0
19616.5	-0.108813	-0.195966	0
19636.5	-0.10866	-0.19597	0
19656.5	-0.108679	-0.195976	0
19676.5	-0.108488	-0.195969	0
19696.5	-0.108545	-0.195966	0
19716.5	-0.108221	-0.195967	0
19736.5	-0.108316	-0.195967	0
19756.5	-0.108145	-0.195974	0
19776.5	-0.108049	-0.195969	0
19796.5	-0.108049	-0.195971	0
19816.5	-0.107858	-0.195966	0
19836.5	-0.107801	-0.195968	0
19856.5	-0.107744	-0.195966	0
19860.2	-0.107705	-0.195971	0