File: EXPERIMENTAL/DATA/Cycling data Master thesis/I-cell/2024-04-26_JP-measurements_sample-A6-03_M-cell_Cu-Li-Cellgard2400-separator_25muL-LiFSI-in-DME_outside-glovebox_sigma-0.002_added-OCV-0.1s_Deltax110.2mm_04_CP_C01.txt
time/s	Ewe/V	I/mA	error
395.472	-0.089948	-1.94484	0
395.474	-0.209136	-1.95957	0
395.477	-0.240006	-1.95958	0
395.479	-0.263736	-1.95957	0
395.481	-0.282693	-1.95953	0
395.483	-0.298252	-1.95958	0
395.485	-0.311234	-1.95958	0
395.489	-0.329676	-1.95958	0
395.494	-0.345102	-1.95955	0
395.5	-0.359897	-1.95962	0
395.509	-0.372154	-1.95963	0
395.532	-0.383876	-1.95967	0
395.589	-0.373968	-1.95958	0
395.635	-0.362207	-1.95964	0
395.821	-0.365529	-1.95968	0
395.956	-0.377022	-1.9596	0
396.119	-0.388649	-1.95964	0
396.324	-0.39995	-1.95963	0
396.614	-0.411424	-1.95959	0
397.05	-0.422802	-1.95959	0
397.767	-0.434162	-1.95958	0
398.993	-0.445387	-1.95965	0
401.04	-0.456651	-1.9596	0
404.382	-0.467838	-1.95967	0
408.457	-0.479121	-1.95965	0
412.401	-0.490385	-1.9596	0
416.229	-0.501858	-1.95967	0
421.439	-0.513256	-1.95969	0
435.469	-0.511499	-1.95968	0
440.515	-0.500236	-1.95965	0
444.389	-0.48901	-1.95964	0
447.814	-0.477575	-1.95963	0
451.03	-0.466368	-1.95961	0
454.32	-0.455123	-1.95965	0
457.663	-0.443803	-1.95963	0
461.194	-0.432558	-1.95964	0
464.948	-0.421256	-1.95964	0
468.932	-0.41005	-1.95964	0
473.198	-0.398709	-1.95963	0
477.624	-0.387389	-1.95966	0
482.038	-0.376163	-1.95967	0
486.097	-0.363792	-1.95968	0
487.089	-0.361234	-1.95972	0
487.871	-0.35858	-1.95967	0
488.895	-0.349722	-1.95971	0
488.923	-0.346782	-1.9597	0
488.981	-0.348233	-1.95967	0
489.064	-0.340864	-1.95971	0
489.145	-0.346171	-1.95971	0
489.343	-0.34556	-1.95963	0
489.431	-0.347488	-1.95968	0
489.506	-0.339489	-1.95971	0
489.61	-0.339317	-1.95968	0
489.788	-0.341093	-1.95967	0
489.882	-0.342334	-1.95958	0
489.97	-0.336549	-1.95963	0
490.084	-0.337675	-1.95969	0
490.225	-0.335976	-1.95967	0
490.268	-0.333342	-1.95967	0
490.377	-0.324102	-1.9596	0
490.478	-0.330822	-1.95966	0
490.567	-0.327634	-1.95965	0
490.628	-0.323777	-1.95967	0
490.663	-0.325324	-1.9597	0
490.706	-0.323529	-1.95962	0
490.778	-0.317573	-1.95969	0
490.817	-0.323453	-1.95966	0
490.85	-0.319214	-1.95967	0
490.889	-0.314652	-1.95964	0
490.982	-0.314251	-1.95964	0
491.058	-0.308371	-1.9597	0
491.139	-0.309096	-1.95964	0
491.205	-0.310356	-1.95965	0
491.273	-0.300944	-1.9597	0
491.331	-0.30461	-1.95967	0
491.4	-0.306805	-1.95963	0
491.491	-0.307321	-1.95963	0
491.56	-0.309249	-1.95964	0
491.638	-0.307989	-1.95962	0
491.743	-0.310853	-1.9597	0
491.843	-0.300066	-1.95966	0
491.902	-0.300009	-1.95969	0
491.972	-0.299837	-1.95962	0
492.063	-0.299341	-1.95965	0
492.116	-0.288879	-1.95965	0
492.156	-0.298558	-1.95966	0
492.22	-0.297737	-1.95969	0
492.292	-0.285881	-1.95962	0
492.352	-0.277176	-1.95968	0
492.435	-0.282159	-1.95964	0
492.511	-0.290521	-1.95968	0
492.578	-0.284526	-1.95966	0
492.667	-0.288153	-1.95967	0
492.717	-0.288631	-1.95962	0
492.778	-0.276756	-1.95969	0
492.834	-0.27836	-1.95965	0
492.89	-0.274541	-1.95965	0
492.942	-0.259956	-1.95965	0
493.013	-0.262266	-1.95967	0
493.073	-0.262915	-1.95962	0
493.121	-0.268585	-1.95965	0
493.175	-0.264519	-1.95969	0
493.234	-0.265397	-1.95964	0
493.275	-0.260548	-1.95971	0
493.334	-0.263793	-1.95969	0
493.446	-0.263602	-1.95967	0
493.523	-0.258772	-1.95969	0
493.61	-0.256119	-1.95965	0
493.714	-0.256195	-1.95969	0
493.807	-0.258581	-1.95964	0
493.877	-0.253751	-1.95967	0
493.965	-0.258791	-1.95961	0
494.054	-0.252148	-1.95977	0
494.127	-0.252281	-1.95965	0
494.184	-0.252739	-1.95965	0
494.281	-0.255622	-1.95962	0
494.377	-0.251327	-1.95969	0
494.462	-0.250945	-1.9596	0
494.537	-0.248177	-1.95971	0
494.611	-0.252854	-1.95963	0
494.674	-0.243251	-1.95963	0
494.755	-0.24999	-1.95971	0
494.861	-0.247165	-1.95967	0
494.925	-0.249666	-1.95972	0
495.088	-0.247795	-1.95966	0
495.219	-0.241208	-1.95972	0
495.327	-0.242201	-1.95964	0
495.425	-0.236951	-1.95971	0
495.511	-0.234813	-1.95964	0
495.63	-0.234546	-1.95965	0
495.875	-0.240292	-1.95964	0
495.942	-0.234298	-1.95971	0
496.107	-0.232999	-1.95965	0
496.228	-0.226069	-1.95972	0
496.345	-0.223988	-1.95969	0
496.501	-0.22584	-1.95971	0
496.596	-0.217039	-1.9597	0
496.651	-0.2145	-1.95967	0
496.751	-0.210548	-1.95965	0
496.848	-0.20484	-1.95971	0
496.994	-0.209842	-1.95964	0
497.184	-0.213679	-1.95965	0
497.287	-0.208124	-1.95962	0
497.477	-0.204936	-1.95969	0
497.566	-0.208009	-1.95964	0
497.653	-0.202969	-1.95967	0
497.84	-0.201633	-1.95962	0
498.013	-0.199953	-1.95968	0
498.123	-0.194741	-1.95969	0
498.281	-0.202587	-1.95962	0
498.56	-0.196325	-1.95974	0
498.682	-0.192526	-1.9597	0
498.884	-0.195944	-1.95967	0
499.021	-0.194168	-1.95965	0
499.219	-0.196516	-1.95967	0
499.348	-0.196173	-1.95967	0
499.513	-0.192412	-1.95969	0
499.683	-0.188727	-1.95965	0
499.871	-0.193748	-1.9596	0
500.106	-0.194932	-1.95967	0
500.273	-0.192755	-1.95964	0
500.409	-0.192755	-1.9597	0
500.621	-0.19161	-1.95969	0
500.829	-0.188174	-1.95969	0
501.017	-0.185138	-1.95972	0
501.171	-0.183057	-1.95969	0
501.424	-0.188326	-1.95974	0
501.644	-0.186627	-1.95968	0
501.874	-0.186131	-1.95967	0
502.039	-0.18237	-1.95969	0
502.318	-0.178934	-1.9597	0
502.653	-0.179812	-1.95968	0
503.008	-0.178762	-1.95968	0
503.322	-0.18132	-1.9597	0
503.57	-0.182351	-1.95966	0
503.877	-0.181186	-1.95969	0
504.174	-0.180136	-1.95964	0
504.562	-0.171354	-1.95974	0
504.843	-0.174027	-1.9597	0
505.108	-0.168529	-1.95967	0
505.453	-0.169407	-1.95964	0
505.942	-0.165703	-1.95969	0
506.287	-0.170839	-1.95965	0
506.668	-0.171259	-1.95967	0
507.114	-0.163756	-1.95964	0
507.453	-0.162783	-1.95969	0
507.857	-0.16599	-1.95965	0
508.346	-0.162916	-1.95965	0
508.664	-0.160072	-1.95969	0
508.983	-0.161007	-1.95966	0
509.728	-0.15507	-1.95969	0
510.229	-0.158029	-1.95966	0
510.874	-0.156349	-1.95972	0
512.131	-0.157418	-1.95962	0
512.698	-0.16074	-1.95969	0
513.413	-0.161866	-1.95962	0
514.36	-0.158544	-1.95964	0
514.958	-0.157093	-1.95963	0
515.914	-0.155776	-1.95965	0
516.839	-0.154841	-1.95965	0
517.697	-0.157819	-1.95965	0
518.626	-0.16494	-1.95968	0
519.079	-0.159193	-1.95956	0
520.82	-0.166658	-1.95969	0
521.904	-0.165513	-1.9596	0
522.855	-0.162343	-1.95968	0
523.903	-0.165169	-1.95965	0
524.74	-0.168071	-1.9596	0
526.111	-0.171068	-1.95968	0
527.7	-0.172061	-1.95972	0
528.962	-0.173092	-1.95964	0
530.036	-0.174046	-1.95966	0
530.644	-0.175154	-1.9597	0
532.36	-0.177998	-1.95962	0
534.178	-0.176433	-1.95964	0
535.341	-0.182141	-1.95965	0
536.295	-0.180938	-1.95969	0
537.414	-0.181759	-1.95962	0
538.608	-0.176375	-1.95965	0
540.349	-0.183611	-1.95969	0
541.288	-0.188842	-1.95967	0
543.059	-0.187544	-1.95963	0
544.403	-0.190197	-1.95968	0
545.478	-0.185692	-1.95965	0
545.884	-0.183439	-1.95965	0
546.276	-0.186264	-1.95961	0
547.245	-0.182828	-1.95967	0
547.897	-0.181473	-1.95962	0
548.423	-0.178304	-1.95966	0
548.985	-0.181931	-1.95967	0
549.427	-0.180957	-1.95965	0
549.577	-0.18027	-1.95969	0
550.032	-0.174371	-1.95965	0
550.33	-0.172748	-1.95967	0
550.45	-0.169999	-1.95962	0
550.462	-0.169197	-1.9597	0
550.474	-0.170228	-1.95965	0
550.501	-0.171202	-1.95963	0
550.52	-0.172233	-1.95969	0
550.525	-0.1746	-1.95965	0
550.658	-0.175344	-1.95967	0
550.839	-0.169503	-1.95966	0
551.157	-0.169121	-1.95974	0
551.18	-0.167956	-1.95967	0
551.191	-0.166429	-1.9597	0
551.198	-0.168223	-1.9597	0
551.201	-0.166868	-1.95965	0
551.206	-0.168033	-1.95965	0
551.244	-0.166906	-1.95967	0
551.288	-0.165627	-1.95964	0
551.314	-0.166314	-1.95962	0
551.469	-0.161179	-1.95968	0
551.554	-0.159747	-1.95968	0
551.728	-0.163336	-1.95969	0
551.986	-0.152893	-1.95958	0
552.068	-0.161332	-1.95974	0
552.137	-0.160587	-1.95965	0
552.146	-0.159365	-1.95967	0
552.311	-0.16053	-1.95968	0
552.596	-0.161847	-1.95969	0
553.126	-0.158621	-1.95972	0
553.453	-0.153371	-1.95969	0
553.867	-0.154535	-1.95964	0
554.389	-0.148808	-1.9597	0
554.517	-0.145601	-1.95964	0
554.805	-0.146899	-1.95969	0
555.215	-0.141763	-1.95966	0
555.637	-0.143424	-1.95969	0
556.216	-0.133898	-1.95964	0
556.68	-0.130862	-1.95963	0
557.276	-0.129278	-1.95966	0
557.849	-0.123799	-1.95975	0
558.398	-0.118319	-1.95964	0
559.035	-0.117518	-1.95964	0
560.132	-0.112019	-1.95965	0
561.319	-0.10843	-1.95965	0
563.123	-0.105261	-1.95963	0
565.566	-0.10003	-1.95969	0
567.443	-0.0985794	-1.95974	0
569.783	-0.101252	-1.95966	0
574.633	-0.099763	-1.95971	0
575.472	-0.0992285	-1.95971	0