File: EXPERIMENTAL/DATA/Cycling data Master thesis/I-cell/2024-04-24_JP-measurements_sample-A6-01_M-cell_Cu-Li-Cellgard2400-separator_25muL-LiFSI-in-DME_outside-glovebox_sigma-0.02_added-OCV-0.1s_Deltax110.3mm_04_CP_C11.txt
time/s	Ewe/V	I/mA	error
81.9924	-0.0485788	-1.94506	0
81.9932	-0.0942702	-1.9595	0
81.994	-0.10954	-1.95955	0
81.9948	-0.122673	-1.95956	0
81.9956	-0.134526	-1.95955	0
81.9964	-0.14533	-1.95953	0
81.9972	-0.155504	-1.95955	0
81.998	-0.164685	-1.95957	0
81.9988	-0.173198	-1.9596	0
81.9996	-0.18112	-1.95963	0
82.0004	-0.188831	-1.95957	0
82.0012	-0.195665	-1.95963	0
82.002	-0.202097	-1.95962	0
82.0028	-0.208282	-1.95957	0
82.0036	-0.213912	-1.95959	0
82.0044	-0.219333	-1.95962	0
82.0052	-0.224468	-1.95962	0
82.006	-0.229278	-1.95956	0
82.0068	-0.233878	-1.95962	0
82.008	-0.240215	-1.9596	0
82.009	-0.245197	-1.95956	0
82.0106	-0.252241	-1.95965	0
82.0122	-0.258902	-1.95964	0
82.0138	-0.264896	-1.95958	0
82.0154	-0.27047	-1.95959	0
82.017	-0.275681	-1.95954	0
82.0186	-0.280472	-1.95961	0
82.0204	-0.285473	-1.95963	0
82.0228	-0.291371	-1.9596	0
82.025	-0.296505	-1.95964	0
82.0274	-0.301487	-1.95963	0
82.0298	-0.30624	-1.95967	0
82.0326	-0.311146	-1.9596	0
82.0354	-0.315841	-1.95955	0
82.0386	-0.320651	-1.95961	0
82.0418	-0.324965	-1.9596	0
82.0454	-0.329565	-1.95957	0
82.0492	-0.334204	-1.95961	0
82.0534	-0.338651	-1.95964	0
82.0578	-0.343022	-1.95956	0
82.0626	-0.347432	-1.95962	0
82.0684	-0.352223	-1.95963	0
82.0742	-0.35646	-1.95959	0
82.081	-0.360736	-1.95959	0
82.0902	-0.365145	-1.95962	0
82.1048	-0.369344	-1.95958	0
82.1848	-0.369306	-1.9596	0
82.2356	-0.365183	-1.95961	0
83.9424	-0.365164	-1.9596	0
85.8764	-0.361098	-1.95959	0
89.9202	-0.36524	-1.95961	0
91.5738	-0.369306	-1.95965	0
93.0854	-0.373467	-1.95961	0
94.5978	-0.377552	-1.95959	0
96.1542	-0.381618	-1.95962	0
97.919	-0.385722	-1.95963	0
99.9084	-0.389806	-1.95965	0
102.469	-0.393948	-1.95964	0
106.492	-0.398091	-1.95963	0
119.875	-0.399656	-1.95964	0
126.078	-0.395609	-1.9596	0
131.549	-0.391505	-1.95961	0
135.632	-0.387382	-1.95965	0
139.862	-0.383298	-1.95963	0
143.859	-0.379232	-1.95965	0
147.817	-0.375128	-1.95962	0
152.095	-0.370986	-1.95969	0
156.381	-0.366901	-1.95964	0
161.252	-0.362816	-1.95963	0
165.497	-0.358693	-1.95973	0
170.046	-0.354628	-1.95962	0
174.12	-0.350543	-1.95967	0
178.348	-0.346496	-1.95969	0
183.058	-0.34245	-1.95963	0
187.475	-0.338346	-1.9596	0
191.694	-0.334223	-1.95961	0
195.712	-0.330119	-1.9596	0
198.986	-0.326072	-1.95966	0
202.451	-0.321949	-1.95969	0
202.471	-0.315536	-1.95961	0
202.493	-0.308817	-1.95962	0
202.526	-0.299903	-1.95966	0
202.548	-0.301964	-1.95969	0
202.586	-0.295799	-1.95966	0
202.59	-0.290474	-1.9597	0
202.608	-0.28866	-1.95964	0
202.633	-0.291237	-1.95962	0
202.646	-0.283869	-1.95965	0
202.681	-0.288317	-1.95967	0
202.692	-0.286904	-1.95969	0
202.704	-0.291027	-1.95965	0
202.713	-0.288565	-1.95962	0
202.723	-0.283354	-1.95958	0
202.73	-0.279937	-1.95957	0
202.744	-0.274249	-1.95964	0
202.758	-0.276196	-1.95962	0
202.765	-0.280701	-1.95962	0
202.775	-0.28009	-1.95956	0
202.794	-0.27423	-1.95963	0
202.829	-0.27631	-1.95964	0
202.842	-0.27799	-1.9597	0
202.863	-0.271844	-1.95966	0
202.888	-0.27612	-1.95962	0
202.895	-0.278162	-1.95963	0
202.911	-0.272913	-1.95963	0
202.96	-0.266423	-1.95965	0
202.983	-0.260697	-1.95973	0
202.992	-0.256516	-1.95966	0
203.028	-0.249702	-1.95965	0
203.047	-0.248194	-1.95965	0
203.069	-0.247736	-1.95969	0
203.087	-0.249549	-1.95967	0
203.104	-0.24745	-1.9597	0
203.112	-0.244415	-1.9596	0
203.124	-0.241857	-1.95964	0
203.141	-0.246133	-1.9596	0
203.153	-0.245999	-1.95963	0
203.185	-0.24304	-1.95963	0
203.209	-0.24262	-1.95967	0
203.22	-0.242315	-1.95966	0
203.239	-0.24222	-1.95969	0
203.26	-0.246992	-1.95963	0
203.272	-0.246763	-1.95966	0
203.282	-0.244453	-1.95962	0
203.295	-0.2397	-1.95962	0
203.314	-0.237352	-1.95963	0
203.329	-0.23342	-1.95964	0
203.351	-0.230213	-1.95963	0
203.364	-0.228152	-1.95965	0
203.387	-0.22338	-1.9596	0
203.427	-0.225747	-1.95965	0
203.444	-0.219582	-1.95973	0
203.478	-0.215306	-1.95967	0
203.522	-0.219524	-1.95965	0
203.53	-0.219257	-1.95962	0
203.547	-0.221185	-1.9597	0
203.569	-0.215115	-1.95963	0
203.588	-0.214447	-1.95961	0
203.627	-0.212156	-1.95963	0
203.658	-0.214695	-1.95967	0
203.679	-0.21878	-1.95969	0
203.71	-0.216451	-1.95965	0
203.731	-0.211851	-1.95963	0
203.754	-0.206449	-1.9596	0
203.808	-0.208511	-1.95969	0
203.828	-0.213187	-1.95967	0
203.887	-0.209961	-1.95967	0
203.914	-0.204693	-1.95961	0
203.937	-0.200341	-1.95962	0
203.97	-0.199826	-1.95969	0
204.013	-0.199558	-1.95965	0
204.028	-0.194118	-1.95966	0
204.053	-0.194157	-1.95963	0
204.088	-0.192191	-1.95965	0
204.13	-0.190091	-1.95964	0
204.185	-0.190454	-1.95962	0
204.287	-0.18969	-1.95965	0
204.369	-0.189461	-1.95963	0
204.396	-0.184899	-1.95964	0
204.484	-0.189136	-1.95963	0
204.522	-0.188793	-1.95963	0
204.61	-0.186331	-1.95969	0
204.631	-0.182017	-1.95967	0
204.652	-0.17755	-1.95969	0
204.738	-0.175279	-1.95965	0
204.841	-0.175584	-1.95971	0
204.881	-0.173408	-1.95962	0
204.951	-0.173465	-1.95967	0
205.06	-0.16877	-1.95963	0
205.174	-0.166498	-1.95962	0
205.255	-0.166727	-1.95965	0
205.388	-0.166785	-1.95965	0
205.491	-0.168808	-1.95962	0
205.608	-0.164341	-1.95963	0
205.675	-0.164322	-1.95966	0
205.73	-0.159894	-1.95963	0
205.781	-0.159875	-1.95966	0
205.907	-0.160009	-1.9596	0
206.028	-0.157813	-1.95961	0
206.107	-0.155657	-1.95966	0
206.207	-0.151419	-1.95961	0
206.341	-0.153194	-1.95965	0
206.436	-0.150808	-1.95962	0
206.56	-0.148441	-1.95961	0
206.726	-0.148518	-1.95966	0
206.81	-0.143994	-1.95968	0
206.951	-0.139795	-1.95967	0
207.219	-0.135481	-1.9596	0
207.403	-0.135481	-1.95963	0
207.64	-0.134679	-1.95967	0
207.861	-0.130594	-1.95967	0
208.057	-0.130613	-1.95963	0
208.313	-0.130842	-1.95966	0
208.457	-0.130957	-1.95958	0
208.625	-0.1288	-1.95969	0
208.661	-0.123952	-1.95965	0
209.335	-0.123799	-1.9596	0
209.512	-0.121547	-1.95967	0
209.934	-0.1175	-1.9596	0
210.582	-0.115343	-1.95964	0
211.063	-0.11332	-1.95963	0
212.426	-0.111316	-1.95966	0
213.589	-0.109197	-1.95969	0
215.795	-0.111316	-1.95959	0
216.7	-0.113415	-1.95967	0
218.997	-0.115515	-1.95959	0
219.889	-0.119733	-1.95958	0
221.086	-0.121699	-1.95962	0
221.63	-0.121718	-1.95962	0
222.747	-0.121738	-1.95956	0
223.24	-0.121604	-1.95965	0
224.058	-0.121508	-1.95964	0
225.608	-0.12147	-1.95958	0
226.117	-0.119428	-1.95968	0
227.384	-0.12147	-1.95965	0
227.756	-0.119275	-1.9597	0
228.738	-0.121394	-1.95957	0
231.699	-0.119313	-1.95966	0
232.811	-0.115095	-1.95965	0
234.78	-0.112957	-1.95965	0
236.167	-0.110877	-1.95962	0
237.243	-0.108891	-1.95958	0
239.634	-0.108891	-1.9596	0
241.692	-0.106887	-1.9596	0
243.732	-0.109178	-1.95956	0
246.025	-0.111239	-1.95965	0
247.19	-0.106944	-1.95962	0
250.853	-0.10893	-1.95962	0
253.173	-0.106887	-1.95971	0
255.5	-0.104864	-1.95962	0
261.605	-0.107002	-1.95966	0
261.992	-0.10536	-1.95963	0