File: EXPERIMENTAL/DATA/Cycling data Master thesis/I-cell/2024-04-24_JP-measurements_sample-A5-01_M-cell_Cu-Li-Cellgard2400-separator_25muL-LiFSI-in-DME_outside-glovebox_sigma-0.02_added-OCV-0.1s_Deltax110.3mm_02_MB_C10.txt
time/s	Ewe/V	I/mA	error
60.053	3.03398	-0.0250307	0
60.1738	0.00920289	-13.6838	0
60.175	0.00916473	-13.5524	0
60.1762	0.00937465	-13.4159	0
60.1774	0.0093174	-13.2858	0
60.1786	0.00916473	-13.157	0
60.1798	0.00933648	-13.0333	0
60.1808	0.00916473	-12.9236	0
60.182	0.00926014	-12.8037	0
60.1832	0.00918381	-12.6825	0
60.1844	0.0093174	-12.569	0
60.1856	0.00927923	-12.4408	0
60.187	0.00929831	-12.3139	0
60.1882	0.00920289	-12.1985	0
60.1894	0.00924106	-12.0862	0
60.1908	0.00924106	-11.9529	0
60.1922	0.00927923	-11.8299	0
60.1936	0.00926014	-11.708	0
60.1948	0.00927923	-11.6009	0
60.196	0.00922198	-11.4989	0
60.1974	0.00927923	-11.3745	0
60.1988	0.00916473	-11.2604	0
60.2002	0.00924106	-11.1481	0
60.2018	0.00920289	-11.0148	0
60.2034	0.00926014	-10.8866	0
60.205	0.00922198	-10.7591	0
60.2064	0.00929831	-10.6507	0
60.208	0.00927923	-10.5314	0
60.2096	0.00935556	-10.4179	0
60.211	0.00920289	-10.3063	0
60.2126	0.00914564	-10.1902	0
60.2142	0.00926014	-10.0767	0
60.216	0.00924106	-9.94662	0
60.2176	0.00920289	-9.83246	0
60.2192	0.00924106	-9.72213	0
60.2208	0.00941281	-9.62074	0
60.2224	0.00914564	-9.50339	0
60.224	0.0093174	-9.40072	0
60.2256	0.00922198	-9.29549	0
60.2274	0.00916473	-9.1807	0
60.2292	0.0093174	-9.0608	0
60.2312	0.00924106	-8.94091	0
60.233	0.00926014	-8.82548	0
60.235	0.00941281	-8.71196	0
60.237	0.00927923	-8.59015	0
60.239	0.00926014	-8.47026	0
60.241	0.00918381	-8.36057	0
60.243	0.00920289	-8.25151	0
60.245	0.00922198	-8.13672	0
60.2468	0.00927923	-8.03086	0
60.249	0.00914564	-7.91798	0
60.2514	0.00926014	-7.8	0
60.2536	0.0093174	-7.68648	0
60.2558	0.00918381	-7.57551	0
60.2582	0.00922198	-7.46072	0
60.2606	0.00918381	-7.35103	0
60.263	0.00926014	-7.24134	0
60.2654	0.00918381	-7.13803	0
60.2678	0.00929831	-7.03471	0
60.2704	0.0093174	-6.92056	0
60.2728	0.00920289	-6.81852	0
60.2758	0.00926014	-6.70373	0
60.2786	0.00920289	-6.59404	0
60.2818	0.00937465	-6.47095	0
60.285	0.00929831	-6.36254	0
60.2878	0.00922198	-6.25795	0
60.2914	0.00918381	-6.14316	0
60.2944	0.00924106	-6.03857	0
60.2978	0.00929831	-5.93653	0
60.3016	0.00924106	-5.81855	0
60.3052	0.00927923	-5.71332	0
60.3092	0.00929831	-5.59917	0
60.3134	0.0093174	-5.49139	0
60.3174	0.00914564	-5.38489	0
60.3216	0.00920289	-5.28158	0
60.3262	0.00926014	-5.16615	0
60.3308	0.00927923	-5.06156	0
60.3356	0.0093174	-4.95505	0
60.3404	0.00927923	-4.8511	0
60.346	0.00927923	-4.73886	0
60.3512	0.00916473	-4.63555	0
60.3568	0.00918381	-4.5265	0
60.3632	0.00926014	-4.41553	0
60.3692	0.00924106	-4.31285	0
60.3732	0.00927923	-4.33879	0
60.4076	0.00924106	-3.81848	0
60.4166	0.0093174	-3.717	0
60.4262	0.00924106	-3.61501	0
60.4366	0.00933648	-3.51302	0
60.4476	0.00916473	-3.41193	0
60.4598	0.00929831	-3.30771	0
60.4728	0.00922198	-3.20598	0
60.4866	0.00924106	-3.1052	0
60.5016	0.00926014	-3.00296	0
60.5178	0.00922198	-2.90199	0
60.5352	0.00929831	-2.80115	0
60.554	0.00920289	-2.69967	0
60.5744	0.00922198	-2.59889	0
60.5964	0.00927923	-2.4983	0
60.621	0.00929831	-2.39701	0
60.6478	0.00935556	-2.29605	0
60.6772	0.00926014	-2.19565	0
60.7098	0.00920289	-2.09538	0
60.7468	0.00924106	-1.99428	0
60.7878	0.00926014	-1.89389	0
60.835	0.0093174	-1.79273	0
60.8892	0.00922198	-1.69169	0
60.952	0.00924106	-1.59085	0
61.024	0.00927923	-1.49052	0
61.11	0.00929831	-1.38955	0
61.213	0.00924106	-1.28833	0
61.338	0.00924106	-1.18774	0
61.4922	0.00929831	-1.08741	0
61.684	0.00924106	-0.987012	0
61.9358	0.00933648	-0.886552	0
62.272	0.00924106	-0.786283	0
62.739	0.00922198	-0.686014	0
63.428	0.00926014	-0.585236	0
64.5062	0.00935556	-0.484904	0
65.0534	0.00916473	-0.450207	0
67.6282	0.00929831	-0.350184	0
73.5746	0.00926014	-0.250094	0
90.2246	0.00922198	-0.159822	0
110.225	0.00927923	-0.119586	0
130.225	0.00916473	-0.0972615	0
150.225	0.00908839	-0.0825654	0
170.225	0.00924106	-0.0713587	0
190.225	0.00926014	-0.0627244	0
210.225	0.00922198	-0.056255	0
230.225	0.00920289	-0.0508172	0
250.225	0.00916473	-0.0463918	0
270.225	0.00926014	-0.0427984	0
290.225	0.00924106	-0.0394831	0
310.225	0.00916473	-0.0366763	0
330.225	0.0093174	-0.0342439	0
350.225	0.00918381	-0.0321075	0
370.225	0.00926014	-0.0301927	0
390.225	0.00918381	-0.028605	0
410.225	0.0093174	-0.0270072	0
430.225	0.00927923	-0.0255882	0
450.225	0.00918381	-0.0243208	0
470.225	0.00906931	-0.0232093	0
490.225	0.00922198	-0.0220475	0
510.225	0.00926014	-0.0210691	0
530.225	0.00924106	-0.0201715	0
550.225	0.00916473	-0.0193012	0
570.225	0.00918381	-0.0185851	0
590.225	0.00920289	-0.0178848	0
610.225	0.00924106	-0.0171649	0
630.225	0.00939373	-0.01659	0
650.225	0.00929831	-0.0160203	0
670.225	0.00922198	-0.0154607	0
690.225	0.00914564	-0.0148687	0
710.225	0.00910748	-0.0144702	0
730.225	0.0093174	-0.0140023	0
750.225	0.00922198	-0.0135497	0
770.225	0.0093174	-0.0131983	0
790.225	0.00929831	-0.0126553	0
810.225	0.00922198	-0.0123554	0
830.225	0.00926014	-0.0120295	0
850.225	0.00920289	-0.0116214	0
870.225	0.00924106	-0.011307	0
890.225	0.00926014	-0.01103	0
910.225	0.00920289	-0.0106742	0
930.225	0.00927923	-0.0103769	0
950.225	0.00924106	-0.0101916	0
970.225	0.00922198	-0.00985362	0
990.225	0.00927923	-0.00966964	0
1010.22	0.00927923	-0.00940864	0
1030.22	0.00920289	-0.0090426	0
1050.22	0.00927923	-0.008886	0
1070.22	0.00910748	-0.00871476	0
1090.22	0.00914564	-0.00852951	0
1110.22	0.00927923	-0.0083449	0
1130.22	0.00918381	-0.00814055	0
1150.22	0.00920289	-0.00789292	0
1170.22	0.00922198	-0.0077917	0
1190.22	0.00922198	-0.00762237	0
1210.22	0.00924106	-0.00748932	0
1230.22	0.00918381	-0.00734991	0
1250.22	0.00912656	-0.00707681	0
1270.22	0.00924106	-0.00705708	0
1290.22	0.00920289	-0.00702398	0
1310.22	0.00920289	-0.00668913	0
1330.22	0.00924106	-0.00668085	0
1350.22	0.00924106	-0.00654017	0
1370.22	0.00927923	-0.00636638	0
1390.22	0.00922198	-0.00624925	0
1410.22	0.00924106	-0.00623715	0
1430.22	0.00927923	-0.00605254	0
1450.22	0.00916473	-0.00600161	0
1470.22	0.00916473	-0.00585902	0
1490.22	0.00924106	-0.00583483	0
1510.22	0.00916473	-0.00567759	0
1530.22	0.00924106	-0.00560247	0
1550.22	0.00927923	-0.00547452	0
1570.22	0.00918381	-0.00541722	0
1590.22	0.00922198	-0.00528354	0
1610.22	0.00918381	-0.00529054	0
1630.22	0.00929831	-0.00511166	0
1650.22	0.0093174	-0.0050862	0
1670.22	0.00929831	-0.00498816	0
1690.22	0.00926014	-0.00501681	0
1710.22	0.00926014	-0.00482138	0
1730.22	0.00912656	-0.00477236	0
1750.22	0.00933648	-0.00465077	0
1770.22	0.0093174	-0.00467878	0
1790.22	0.00920289	-0.00456801	0
1810.22	0.00922198	-0.0045069	0
1830.22	0.00916473	-0.00450836	0
1850.22	0.00916473	-0.00444182	0
1870.22	0.00924106	-0.00438381	0
1890.22	0.00920289	-0.00431256	0
1910.22	0.00922198	-0.00427633	0
1930.22	0.00920289	-0.00424118	0
1950.22	0.00916473	-0.00417655	0
1970.22	0.00920289	-0.00412332	0
1990.22	0.00918381	-0.00406977	0
2010.22	0.00920289	-0.00403831	0
2030.22	0.00920289	-0.00395171	0
2031.8	0.00933648	-0.00391109	0