File: EXPERIMENTAL/DATA/Cycling data Master thesis/I-cell/2024-04-24_JP-measurements_sample-A6-01_M-cell_Cu-Li-Cellgard2400-separator_25muL-LiFSI-in-DME_outside-glovebox_sigma-0.02_added-OCV-0.1s_Deltax110.3mm_02_MB_C11.txt
time/s	Ewe/V	I/mA	error
60.053	2.73653	-0.025006	0
60.1732	0.00904193	-12.3309	0
60.1736	0.00911828	-12.2711	0
60.174	0.0090992	-12.2145	0
60.1744	0.00900376	-12.1553	0
60.1748	0.00896558	-12.093	0
60.1754	0.00892741	-12.0153	0
60.1758	0.00894649	-11.9651	0
60.1762	0.00906102	-11.9085	0
60.1766	0.00894649	-11.8468	0
60.1772	0.00894649	-11.7704	0
60.1776	0.00896558	-11.7183	0
60.178	0.00906102	-11.6629	0
60.1784	0.00906102	-11.6095	0
60.1788	0.00904193	-11.551	0
60.1794	0.00902284	-11.4765	0
60.18	0.00908011	-11.397	0
60.1806	0.00896558	-11.3168	0
60.181	0.00904193	-11.266	0
60.1816	0.00898467	-11.1928	0
60.182	0.0090992	-11.1387	0
60.1824	0.00896558	-11.084	0
60.183	0.00900376	-11.0109	0
60.1836	0.00896558	-10.9441	0
60.184	0.00902284	-10.8925	0
60.1844	0.00906102	-10.8404	0
60.1848	0.00906102	-10.7895	0
60.1854	0.00900376	-10.7189	0
60.186	0.00906102	-10.6533	0
60.1864	0.00906102	-10.6031	0
60.1868	0.00898467	-10.5522	0
60.1874	0.00900376	-10.4854	0
60.188	0.00906102	-10.4161	0
60.1884	0.00896558	-10.3652	0
60.189	0.00900376	-10.3003	0
60.1896	0.00900376	-10.2322	0
60.19	0.00894649	-10.1807	0
60.1906	0.00892741	-10.1234	0
60.1912	0.00906102	-10.0604	0
60.1918	0.00902284	-9.98729	0
60.1924	0.00900376	-9.91922	0
60.193	0.00904193	-9.85815	0
60.1936	0.00898467	-9.79962	0
60.1942	0.00902284	-9.73282	0
60.1948	0.00906102	-9.67366	0
60.1954	0.0090992	-9.61386	0
60.196	0.00896558	-9.54198	0
60.1968	0.00919464	-9.46882	0
60.1974	0.00904193	-9.40775	0
60.198	0.00904193	-9.34732	0
60.1986	0.00890832	-9.29388	0
60.1992	0.00902284	-9.22772	0
60.2	0.00908011	-9.1552	0
60.2006	0.00908011	-9.09985	0
60.2012	0.00915646	-9.0426	0
60.2018	0.00906102	-8.98534	0
60.2026	0.00902284	-8.91982	0
60.2032	0.00900376	-8.86129	0
60.2038	0.00900376	-8.79832	0
60.2046	0.00904193	-8.73534	0
60.2052	0.00898467	-8.67808	0
60.206	0.00898467	-8.61192	0
60.2066	0.00900376	-8.55721	0
60.2074	0.00906102	-8.49169	0
60.208	0.0090992	-8.44143	0
60.2086	0.00904193	-8.3899	0
60.2094	0.00894649	-8.32374	0
60.2102	0.00906102	-8.26458	0
60.2108	0.00908011	-8.20669	0
60.2116	0.00908011	-8.15135	0
60.2122	0.00902284	-8.09982	0
60.213	0.00902284	-8.04193	0
60.2136	0.00898467	-7.98722	0
60.2142	0.00898467	-7.93696	0
60.215	0.00906102	-7.87844	0
60.2158	0.00898467	-7.81927	0
60.2168	0.00904193	-7.74421	0
60.2176	0.00904193	-7.69268	0
60.2182	0.00902284	-7.64051	0
60.2192	0.00902284	-7.57881	0
60.22	0.00911828	-7.52219	0
60.2208	0.00896558	-7.46303	0
60.2216	0.00890832	-7.4115	0
60.2224	0.00900376	-7.35488	0
60.2232	0.00911828	-7.30335	0
60.224	0.00908011	-7.24674	0
60.2248	0.00900376	-7.19203	0
60.2256	0.00906102	-7.14177	0
60.2266	0.0090992	-7.08324	0
60.2276	0.00906102	-7.01645	0
60.2284	0.00908011	-6.96619	0
60.2294	0.00904193	-6.90385	0
60.2302	0.00900376	-6.85168	0
60.2312	0.00906102	-6.78998	0
60.2322	0.00906102	-6.73463	0
60.2332	0.00902284	-6.67738	0
60.234	0.00902284	-6.62458	0
60.2352	0.00896558	-6.55397	0
60.2362	0.00896558	-6.5018	0
60.2374	0.00896558	-6.43373	0
60.2384	0.00900376	-6.38157	0
60.2394	0.00902284	-6.32877	0
60.2404	0.00898467	-6.27533	0
60.2414	0.00906102	-6.2238	0
60.2424	0.00906102	-6.16846	0
60.2436	0.00902284	-6.11502	0
60.2444	0.00911828	-6.06285	0
60.2456	0.00908011	-6.00878	0
60.2468	0.00902284	-5.94962	0
60.248	0.00906102	-5.88982	0
60.2492	0.00898467	-5.83766	0
60.2502	0.00906102	-5.78676	0
60.2514	0.00902284	-5.73142	0
60.2526	0.00908011	-5.67989	0
60.2538	0.0090992	-5.62773	0
60.255	0.00904193	-5.57429	0
60.2564	0.00902284	-5.51513	0
60.2578	0.00902284	-5.45469	0
60.2592	0.00900376	-5.39744	0
60.2604	0.00902284	-5.34527	0
60.2618	0.00898467	-5.29311	0
60.2632	0.00900376	-5.23649	0
60.2648	0.00900376	-5.17033	0
60.2664	0.00900376	-5.11244	0
60.268	0.00900376	-5.05837	0
60.2694	0.0090992	-5.00302	0
60.271	0.00904193	-4.95213	0
60.2724	0.0090992	-4.89742	0
60.274	0.00900376	-4.84398	0
60.2758	0.00904193	-4.79118	0
60.2772	0.00904193	-4.73329	0
60.279	0.00900376	-4.68304	0
60.2806	0.00896558	-4.62515	0
60.2826	0.00900376	-4.57107	0
60.2844	0.0090992	-4.51573	0
60.2862	0.00917555	-4.46484	0
60.2878	0.00896558	-4.41394	0
60.2898	0.00896558	-4.36178	0
60.2918	0.00908011	-4.30771	0
60.2938	0.00900376	-4.25491	0
60.2958	0.00900376	-4.20401	0
60.2982	0.00917555	-4.1474	0
60.3004	0.00900376	-4.0946	0
60.3026	0.00904193	-4.03925	0
60.3046	0.00896558	-3.98645	0
60.307	0.00902284	-3.92983	0
60.3098	0.00898467	-3.87576	0
60.3126	0.00911828	-3.82105	0
60.315	0.00902284	-3.76698	0
60.318	0.0090992	-3.70018	0
60.321	0.00896558	-3.64929	0
60.3236	0.00911828	-3.5984	0
60.3266	0.00892741	-3.54432	0
60.3296	0.00906102	-3.49216	0
60.3326	0.00898467	-3.44127	0
60.3356	0.00900376	-3.39101	0
60.3392	0.00906102	-3.33757	0
60.3426	0.00896558	-3.28604	0
60.346	0.00908011	-3.23006	0
60.3496	0.00906102	-3.17981	0
60.3538	0.00902284	-3.12446	0
60.358	0.00902284	-3.06403	0
60.3622	0.00913737	-3.01377	0
60.3666	0.00894649	-2.96097	0
60.3708	0.0090992	-2.91071	0
60.4034	0.00902284	-2.6165	0
60.4092	0.00894649	-2.56485	0
60.4152	0.00902284	-2.51364	0
60.4214	0.00904193	-2.46314	0
60.428	0.00911828	-2.41295	0
60.4348	0.00898467	-2.362	0
60.4418	0.00900376	-2.31181	0
60.4492	0.00900376	-2.26099	0
60.457	0.00898467	-2.21087	0
60.465	0.00902284	-2.16049	0
60.4734	0.00911828	-2.11037	0
60.4824	0.00900376	-2.05986	0
60.4916	0.00902284	-2.00961	0
60.5014	0.00904193	-1.95879	0
60.512	0.00898467	-1.90752	0
60.5228	0.00896558	-1.85733	0
60.5344	0.00904193	-1.80702	0
60.5462	0.00911828	-1.75677	0
60.5592	0.00898467	-1.70594	0
60.573	0.00906102	-1.65569	0
60.5876	0.00894649	-1.60551	0
60.6032	0.00900376	-1.55392	0
60.6198	0.00911828	-1.50367	0
60.6378	0.00902284	-1.45297	0
60.6568	0.00902284	-1.40291	0
60.6774	0.00902284	-1.35203	0
60.7	0.00908011	-1.30044	0
60.7242	0.00902284	-1.25025	0
60.7508	0.00898467	-1.19988	0
60.7792	0.00906102	-1.14969	0
60.8106	0.00892741	-1.09944	0
60.845	0.00915646	-1.04925	0
60.8832	0.00900376	-0.999192	0
60.9254	0.00908011	-0.947605	0
60.974	0.00902284	-0.897037	0
61.0274	0.00906102	-0.846341	0
61.087	0.00902284	-0.795581	0
61.1564	0.00902284	-0.745203	0
61.2334	0.00898467	-0.695144	0
61.325	0.0090992	-0.644257	0
61.431	0.00906102	-0.593879	0
61.5598	0.00911828	-0.54331	0
61.7144	0.00911828	-0.492932	0
61.9032	0.00902284	-0.442809	0
62.1636	0.00894649	-0.392732	0
62.4748	0.00894649	-0.342716	0
62.8926	0.00900376	-0.292586	0
63.479	0.00908011	-0.242423	0
64.373	0.00902284	-0.19242	0
65.0528	0.00902284	-0.167141	0
65.0534	0.00906102	-0.166454	0
67.262	0.00917555	-0.116343	0
72.8346	0.00908011	-0.0662692	0
81.839	0.00908011	-0.0391313	0
81.8392	0.00902284	-0.039195	0