File: EXPERIMENTAL/DATA/Cycling data Master thesis/I-cell/2024-04-24_JP-measurements_sample-A4-01_M-cell_Cu-Li-Cellgard2400-separator_25muL-LiFSI-in-DME_outside-glovebox_sigma-0.02_added-OCV-0.1s_Deltax110.4mm_02_MB_C11.txt
time/s	Ewe/V	I/mA	error
60.053	2.82597	-0.025006	0
60.1738	0.0090992	-11.6413	0
60.175	0.00913737	-11.5064	0
60.1762	0.00906102	-11.3639	0
60.1774	0.0090992	-11.2399	0
60.1786	0.00911828	-11.1095	0
60.1798	0.00904193	-10.988	0
60.181	0.00902284	-10.8556	0
60.1822	0.0090992	-10.7399	0
60.1834	0.0090992	-10.619	0
60.1846	0.00908011	-10.5038	0
60.1858	0.00906102	-10.3792	0
60.187	0.00915646	-10.2608	0
60.1884	0.0090992	-10.1317	0
60.1898	0.00902284	-9.99937	0
60.1914	0.00906102	-9.86005	0
60.1928	0.00915646	-9.73537	0
60.1942	0.0090992	-9.61132	0
60.1958	0.00906102	-9.47773	0
60.1972	0.00902284	-9.35622	0
60.1986	0.00906102	-9.24299	0
60.2	0.00921372	-9.13039	0
60.2014	0.00913737	-9.01906	0
60.2028	0.00908011	-8.91346	0
60.2044	0.00913737	-8.79068	0
60.206	0.00908011	-8.66409	0
60.2074	0.0090992	-8.5623	0
60.209	0.00902284	-8.44461	0
60.2106	0.00915646	-8.33011	0
60.2122	0.00911828	-8.2226	0
60.2138	0.00919464	-8.10554	0
60.2156	0.00906102	-7.9834	0
60.2174	0.00913737	-7.87017	0
60.2194	0.0090992	-7.74166	0
60.2214	0.0090992	-7.61761	0
60.2234	0.00908011	-7.49611	0
60.2252	0.00913737	-7.38096	0
60.2272	0.00908011	-7.26582	0
60.2292	0.00908011	-7.15131	0
60.2312	0.00902284	-7.04126	0
60.2332	0.00906102	-6.92993	0
60.2354	0.0090992	-6.81415	0
60.2374	0.00904193	-6.70346	0
60.2398	0.00906102	-6.58323	0
60.242	0.00902284	-6.46745	0
60.2444	0.00904193	-6.35612	0
60.2466	0.00902284	-6.24988	0
60.249	0.00915646	-6.13728	0
60.2512	0.0090992	-6.03296	0
60.254	0.00904193	-5.91908	0
60.2564	0.00904193	-5.81475	0
60.2592	0.0090992	-5.69898	0
60.2624	0.00919464	-5.57874	0
60.2654	0.00906102	-5.46169	0
60.2686	0.00904193	-5.35036	0
60.2718	0.00915646	-5.23458	0
60.2754	0.00908011	-5.12326	0
60.2786	0.00908011	-5.01575	0
60.2826	0.0090992	-4.90124	0
60.2864	0.00896558	-4.78546	0
60.29	0.00900376	-4.68367	0
60.2942	0.00902284	-4.5628	0
60.2986	0.00904193	-4.45848	0
60.3032	0.00898467	-4.34906	0
60.3076	0.0090992	-4.24282	0
60.3124	0.0090992	-4.1404	0
60.3174	0.00908011	-4.03289	0
60.3226	0.00919464	-3.92983	0
60.3282	0.00902284	-3.82041	0
60.334	0.00902284	-3.71736	0
60.3402	0.00908011	-3.60794	0
60.3468	0.0090992	-3.50234	0
60.3536	0.0090992	-3.39928	0
60.3608	0.00911828	-3.29495	0
60.368	0.00908011	-3.19317	0
60.3732	0.00908011	-3.19604	0
60.4084	0.00917555	-2.76865	0
60.4194	0.00911828	-2.66497	0
60.4314	0.00911828	-2.5616	0
60.4444	0.00911828	-2.45958	0
60.4588	0.00902284	-2.3578	0
60.4744	0.00898467	-2.2573	0
60.4918	0.00904193	-2.15636	0
60.5116	0.0090992	-2.05363	0
60.5334	0.0090992	-1.95351	0
60.5582	0.00908011	-1.85205	0
60.5864	0.00904193	-1.75123	0
60.6182	0.0090992	-1.65067	0
60.6552	0.0090992	-1.54909	0
60.6978	0.00896558	-1.44649	0
60.7472	0.00904193	-1.34567	0
60.8054	0.0090992	-1.24434	0
60.8734	0.00913737	-1.14301	0
60.9544	0.00906102	-1.04245	0
61.0522	0.00902284	-0.942008	0
61.1726	0.00908011	-0.841761	0
61.325	0.00908011	-0.741323	0
61.5244	0.00902284	-0.64044	0
61.7974	0.0090992	-0.539621	0
62.1958	0.00896558	-0.438865	0
62.871	0.00913737	-0.338708	0
64.0962	0.00896558	-0.238637	0
65.0534	0.00911828	-0.194653	0
70.754	0.00894649	-0.0945317	0
90.754	0.00906102	-0.0344744	0
110.754	0.00904193	-0.0206504	0
130.754	0.00898467	-0.0146614	0
150.754	0.00906102	-0.01122	0
170.754	0.00902284	-0.0091336	0
190.754	0.00896558	-0.00797778	0
210.754	0.00904193	-0.00676472	0
230.754	0.00898467	-0.00590025	0
250.754	0.00908011	-0.0052495	0
270.754	0.00894649	-0.00648483	0
290.754	0.00890832	-0.00446425	0
310.754	0.00908011	-0.00451414	0
330.754	0.0090992	-0.00381731	0
350.754	0.00904193	-0.00356274	0
370.754	0.00894649	-0.00340915	0
390.754	0.00900376	-0.00336315	0
410.754	0.00913737	-0.00306207	0
430.754	0.00896558	-0.00289429	0
450.754	0.00902284	-0.00283843	0
470.754	0.00906102	-0.00263457	0
490.754	0.00904193	-0.00250891	0
510.754	0.00902284	-0.00243155	0
530.754	0.00900376	-0.00235023	0
550.754	0.00902284	-0.00229424	0
570.754	0.00906102	-0.00247513	0
590.754	0.00896558	-0.00230856	0
610.754	0.00902284	-0.00208294	0
630.754	0.00898467	-0.00208275	0
650.754	0.00913737	-0.00196072	0
670.754	0.0090992	-0.00189385	0
690.754	0.00904193	-0.00187247	0
710.754	0.00913737	-0.00181202	0
730.754	0.00898467	-0.00176965	0
750.754	0.00902284	-0.00171608	0
770.754	0.00898467	-0.00167987	0
790.754	0.00911828	-0.00163005	0
810.754	0.00900376	-0.00172237	0
830.754	0.00902284	-0.00158113	0
850.754	0.00908011	-0.00199119	0
870.754	0.00904193	-0.0015474	0
890.754	0.00906102	-0.0015453	0
910.754	0.00898467	-0.00147233	0
930.754	0.00904193	-0.00151127	0
950.754	0.00898467	-0.00145814	0
970.754	0.00906102	-0.00183111	0
990.754	0.00904193	-0.00144312	0
1010.75	0.00906102	-0.00133375	0
1030.75	0.00900376	-0.00140787	0
1050.75	0.00894649	-0.00135239	0
1070.75	0.00902284	-0.00129621	0
1090.75	0.00904193	-0.00124582	0
1110.75	0.00904193	-0.00130162	0
1130.75	0.00898467	-0.00126529	0
1150.75	0.0090992	-0.0013718	0
1170.75	0.00904193	-0.00118862	0
1190.75	0.00906102	-0.00118022	0
1210.75	0.00919464	-0.0012826	0
1230.75	0.00894649	-0.00114682	0
1250.75	0.00904193	-0.00111602	0
1270.75	0.00904193	-0.00125829	0
1290.75	0.00904193	-0.0011145	0
1310.75	0.00902284	-0.00113715	0
1330.75	0.00915646	-0.00107543	0
1350.75	0.00904193	-0.00107219	0
1370.75	0.00904193	-0.00102924	0
1390.75	0.00906102	-0.00103134	0
1410.75	0.00906102	-0.00103127	0
1430.75	0.00902284	-0.00102707	0
1450.75	0.00904193	-0.00105545	0
1470.75	0.00896558	-0.000977892	0
1490.75	0.00904193	-0.00103452	0
1510.75	0.00906102	-0.00105545	0
1530.75	0.00902284	-0.000988709	0
1550.75	0.00917555	-0.00114275	0
1570.75	0.00896558	-0.00095346	0
1590.75	0.00896558	-0.00102606	0
1610.75	0.00915646	-0.00103178	0
1630.75	0.00904193	-0.000974902	0
1650.75	0.00894649	-0.000892634	0
1670.75	0.00896558	-0.000992081	0
1690.75	0.00898467	-0.000880609	0
1710.75	0.00902284	-0.000861967	0
1730.75	0.00904193	-0.000850832	0
1750.75	0.00904193	-0.000893207	0
1770.75	0.00902284	-0.000864893	0
1790.75	0.00911828	-0.000830408	0
1810.75	0.00896558	-0.000815902	0
1830.75	0.00906102	-0.000886335	0
1850.75	0.00902284	-0.000841097	0
1870.75	0.00911828	-0.000824682	0
1890.75	0.00913737	-0.000795859	0
1910.75	0.00908011	-0.000872846	0
1930.75	0.00906102	-0.000801713	0
1950.75	0.00904193	-0.000801777	0
1970.75	0.00896558	-0.000798214	0
1990.75	0.00913737	-0.000828563	0
2010.75	0.00908011	-0.000779126	0
2030.75	0.00908011	-0.00078727	0
2050.75	0.00906102	-0.000776136	0
2070.75	0.0090992	-0.000813293	0
2090.75	0.00908011	-0.000983173	0
2110.75	0.00904193	-0.000777663	0
2130.75	0.00908011	-0.000725044	0
2150.75	0.00913737	-0.000766083	0
2170.75	0.00902284	-0.000765892	0
2190.75	0.00902284	-0.000776136	0
2210.75	0.00898467	-0.000709647	0
2230.75	0.00911828	-0.000695077	0
2250.75	0.00896558	-0.000707166	0
2270.75	0.00904193	-0.000700549	0
2290.75	0.00904193	-0.000701121	0
2310.75	0.00900376	-0.000687251	0
2330.75	0.00906102	-0.000751894	0
2350.75	0.00906102	-0.000693232	0
2370.75	0.00902284	-0.000806421	0
2390.75	0.00911828	-0.00066829	0
2410.75	0.00898467	-0.000674335	0
2430.75	0.0090992	-0.00065811	0
2450.75	0.00906102	-0.000667209	0
2470.75	0.00904193	-0.00069355	0
2490.75	0.00915646	-0.000654165	0
2510.75	0.00902284	-0.000677452	0
2530.75	0.00904193	-0.000652193	0
2550.75	0.00906102	-0.000616181	0
2570.75	0.0090992	-0.000622225	0
2590.75	0.00908011	-0.000616372	0
2610.75	0.00904193	-0.000609755	0
2630.75	0.00902284	-0.000647103	0
2650.75	0.00894649	-0.000627379	0
2670.75	0.00906102	-0.000628588	0
2690.75	0.0090992	-0.0010685	0
2710.75	0.00911828	-0.000615481	0
2730.75	0.00902284	-0.000592131	0
2750.75	0.00913737	-0.000577751	0
2770.75	0.00896558	-0.000573552	0
2790.75	0.00919464	-0.000612554	0
2810.75	0.00906102	-0.000694377	0
2830.75	0.00906102	-0.000588949	0
2850.75	0.00906102	-0.000567635	0
2870.75	0.00898467	-0.000596012	0
2890.75	0.00900376	-0.000606701	0
2910.75	0.00908011	-0.000585895	0
2930.75	0.00900376	-0.000577369	0
2950.75	0.00904193	-0.000601738	0
2970.75	0.00900376	-0.00059932	0
2990.75	0.00896558	-0.000564517	0
3010.75	0.00898467	-0.000572152	0
3030.75	0.00898467	-0.000537985	0
3050.75	0.00894649	-0.000555737	0
3070.75	0.00900376	-0.000553255	0
3090.75	0.00904193	-0.000529968	0
3110.75	0.00904193	-0.000523733	0
3130.75	0.00902284	-0.000527742	0
3150.75	0.00904193	-0.000549565	0
3170.75	0.00913737	-0.000525324	0
3190.75	0.00904193	-0.000705257	0
3210.75	0.00898467	-0.000761502	0
3230.75	0.00902284	-0.00052297	0
3250.75	0.00908011	-0.000505536	0
3270.75	0.00917555	-0.000508208	0
3290.75	0.00906102	-0.000513108	0
3310.75	0.00890832	-0.000514953	0
3330.75	0.00904193	-0.000498665	0
3350.75	0.00908011	-0.000493702	0
3370.75	0.00913737	-0.000584941	0
3390.75	0.00906102	-0.000496056	0
3410.75	0.00904193	-0.000545429	0
3430.75	0.00919464	-0.000485049	0
3450.75	0.00906102	-0.000480277	0
3470.75	0.00904193	-0.00049542	0
3490.75	0.00904193	-0.000532259	0
3510.75	0.0090992	-0.00048314	0
3530.75	0.00900376	-0.000473851	0
3550.75	0.00917555	-0.000464052	0
3570.75	0.00913737	-0.000491857	0
3590.75	0.00908011	-0.000580105	0
3610.75	0.00904193	-0.000489057	0
3630.75	0.00902284	-0.000500001	0
3650.75	0.00913737	-0.000476777	0
3670.75	0.0090992	-0.000517116	0
3690.75	0.00904193	-0.000461316	0
3710.75	0.00913737	-0.00045928	0
3730.75	0.00911828	-0.000452409	0
3750.75	0.00911828	-0.000454508	0
3770.75	0.00900376	-0.000431285	0
3790.75	0.00898467	-0.000453999	0
3810.75	0.00902284	-0.000468379	0
3830.75	0.00904193	-0.000620889	0
3850.75	0.0090992	-0.000491857	0
3870.75	0.0090992	-0.000444519	0
3890.75	0.00898467	-0.000439493	0
3910.75	0.00904193	-0.000531432	0
3930.75	0.0090992	-0.000457562	0
3950.75	0.00906102	-0.000445919	0
3961.29	0.00896558	-0.000385666	0
3961.29	0.00913737	-0.000395019	0