File: EXPERIMENTAL/DATA/Cycling data Master thesis/I-cell/2024-04-29_JP-measurements_sample-A5.5-01_M-cell_Cu-Li-Cellgard2400-separator_25muL-LiFSI-in-DME_outside-glovebox_sigma-0.02_added-OCV-0.1s_Deltax109.9mm_02_MB_C03.txt
time/s	Ewe/V	I/mA	error
60.053	3.06127	-0.0250202	0
60.1732	0.00934627	-15.422	0
60.1736	0.00942262	-15.3475	0
60.174	0.00934627	-15.2832	0
60.1744	0.00940353	-15.2049	0
60.1748	0.0093081	-15.1292	0
60.1752	0.00936536	-15.0661	0
60.1756	0.00940353	-14.9935	0
60.176	0.00938444	-14.9229	0
60.1764	0.00932718	-14.849	0
60.1768	0.00953714	-14.7777	0
60.1772	0.00942262	-14.7058	0
60.1776	0.00938444	-14.6402	0
60.178	0.00928901	-14.5727	0
60.1784	0.00940353	-14.502	0
60.1788	0.00947988	-14.432	0
60.1792	0.00944171	-14.3658	0
60.1796	0.00932718	-14.297	0
60.18	0.00938444	-14.2181	0
60.1804	0.00940353	-14.1569	0
60.1808	0.00928901	-14.092	0
60.1812	0.00934627	-14.029	0
60.1816	0.00936536	-13.9653	0
60.182	0.00932718	-13.8997	0
60.1824	0.00936536	-13.8329	0
60.1828	0.00946079	-13.7622	0
60.1832	0.00940353	-13.7036	0
60.1836	0.00940353	-13.6361	0
60.184	0.00938444	-13.5744	0
60.1844	0.00936536	-13.5043	0
60.1848	0.00946079	-13.4534	0
60.1852	0.00938444	-13.3865	0
60.1856	0.00934627	-13.3254	0
60.186	0.00928901	-13.2617	0
60.1864	0.00942262	-13.1949	0
60.1868	0.00946079	-13.1401	0
60.1872	0.00944171	-13.0771	0
60.1876	0.0093081	-13.0223	0
60.188	0.00953714	-12.9619	0
60.1884	0.00938444	-12.8918	0
60.1888	0.00932718	-12.8364	0
60.1892	0.00946079	-12.7817	0
60.1896	0.00932718	-12.7148	0
60.19	0.00944171	-12.655	0
60.1904	0.00942262	-12.604	0
60.1908	0.00934627	-12.5423	0
60.1914	0.00944171	-12.4557	0
60.192	0.00940353	-12.3825	0
60.1924	0.00942262	-12.3169	0
60.1928	0.00938444	-12.2602	0
60.1932	0.0093081	-12.2067	0
60.1936	0.00944171	-12.1533	0
60.194	0.0093081	-12.0953	0
60.1944	0.00947988	-12.0438	0
60.1948	0.00934627	-11.9884	0
60.1952	0.00940353	-11.9368	0
60.1956	0.00947988	-11.8827	0
60.196	0.00938444	-11.8305	0
60.1964	0.00942262	-11.77	0
60.1968	0.00938444	-11.7101	0
60.1974	0.00932718	-11.642	0
60.1978	0.00940353	-11.5917	0
60.1982	0.00947988	-11.5408	0
60.1986	0.00934627	-11.4809	0
60.1992	0.00946079	-11.4128	0
60.1996	0.00944171	-11.3555	0
60.2	0.00938444	-11.3052	0
60.2006	0.00932718	-11.2281	0
60.2012	0.00934627	-11.1689	0
60.2016	0.00936536	-11.1097	0
60.2022	0.00940353	-11.0397	0
60.2026	0.00934627	-10.9868	0
60.2032	0.00942262	-10.9111	0
60.2038	0.00949897	-10.8423	0
60.2044	0.00936536	-10.7697	0
60.205	0.00938444	-10.7086	0
60.2054	0.00925083	-10.6564	0
60.206	0.00947988	-10.5819	0
60.2066	0.0093081	-10.5163	0
60.2072	0.00946079	-10.4558	0
60.2078	0.00936536	-10.3839	0
60.2084	0.00944171	-10.3158	0
60.209	0.00934627	-10.2566	0
60.2096	0.00944171	-10.1852	0
60.2102	0.00938444	-10.1229	0
60.2108	0.00936536	-10.0573	0
60.2114	0.00932718	-9.98851	0
60.212	0.00928901	-9.92484	0
60.2126	0.00940353	-9.86435	0
60.2132	0.00942262	-9.80769	0
60.2138	0.00946079	-9.74784	0
60.2144	0.00946079	-9.68226	0
60.215	0.00936536	-9.62177	0
60.2156	0.00936536	-9.5632	0
60.2162	0.00942262	-9.5008	0
60.2168	0.00936536	-9.43395	0
60.2176	0.00942262	-9.3671	0
60.2182	0.00932718	-9.30852	0
60.2188	0.00934627	-9.25504	0
60.2194	0.00942262	-9.19774	0
60.22	0.00946079	-9.13534	0
60.2208	0.00932718	-9.07104	0
60.2214	0.00940353	-9.008	0
60.2222	0.00946079	-8.94115	0
60.223	0.0093081	-8.86411	0
60.2238	0.00932718	-8.80363	0
60.2244	0.00936536	-8.7476	0
60.225	0.00940353	-8.6922	0
60.2258	0.00926992	-8.62726	0
60.2264	0.0093081	-8.57442	0
60.2272	0.00938444	-8.51138	0
60.2278	0.00944171	-8.46045	0
60.2286	0.0093081	-8.39933	0
60.2292	0.00932718	-8.34712	0
60.23	0.00936536	-8.28599	0
60.2308	0.00934627	-8.22678	0
60.2314	0.00934627	-8.17457	0
60.2322	0.00940353	-8.11472	0
60.233	0.00944171	-8.05105	0
60.2338	0.00940353	-7.99694	0
60.2346	0.00938444	-7.93963	0
60.2354	0.00938444	-7.87915	0
60.2362	0.00932718	-7.81739	0
60.2372	0.00938444	-7.75436	0
60.2378	0.00946079	-7.70151	0
60.2388	0.00942262	-7.64039	0
60.2396	0.00938444	-7.58627	0
60.2404	0.00938444	-7.52897	0
60.2412	0.00936536	-7.46912	0
60.242	0.00940353	-7.41818	0
60.243	0.00947988	-7.35706	0
60.2438	0.00940353	-7.30612	0
60.2448	0.00936536	-7.24118	0
60.2458	0.00940353	-7.18643	0
60.2466	0.00938444	-7.13231	0
60.2476	0.00946079	-7.07373	0
60.2486	0.00938444	-7.00815	0
60.2496	0.00936536	-6.9534	0
60.2506	0.00944171	-6.89673	0
60.2516	0.00934627	-6.83497	0
60.2528	0.00946079	-6.77321	0
60.2538	0.00944171	-6.71973	0
60.255	0.00942262	-6.66116	0
60.256	0.00934627	-6.59812	0
60.2572	0.00946079	-6.537	0
60.2582	0.00947988	-6.47842	0
60.2594	0.00934627	-6.42303	0
60.2606	0.00936536	-6.36255	0
60.2618	0.00940353	-6.31034	0
60.263	0.00940353	-6.24922	0
60.2642	0.00940353	-6.19382	0
60.2654	0.00940353	-6.14034	0
60.2666	0.00947988	-6.07667	0
60.2682	0.00932718	-6.01109	0
60.2694	0.00946079	-5.9557	0
60.2706	0.00944171	-5.90158	0
60.272	0.00942262	-5.8411	0
60.2734	0.00949897	-5.7857	0
60.2746	0.00944171	-5.73541	0
60.276	0.00928901	-5.68192	0
60.2774	0.00934627	-5.62717	0
60.2786	0.00940353	-5.57432	0
60.2802	0.00947988	-5.51575	0
60.2816	0.0093081	-5.46545	0
60.283	0.00938444	-5.41133	0
60.2848	0.00940353	-5.34639	0
60.2864	0.00942262	-5.29418	0
60.288	0.00934627	-5.23369	0
60.2898	0.00938444	-5.17512	0
60.2916	0.00934627	-5.1159	0
60.2934	0.00944171	-5.06115	0
60.295	0.00936536	-5.00703	0
60.2968	0.00938444	-4.95546	0
60.2984	0.00932718	-4.90452	0
60.3004	0.00944171	-4.84658	0
60.3024	0.00947988	-4.7861	0
60.3044	0.00938444	-4.73134	0
60.3064	0.00942262	-4.67404	0
60.3086	0.00936536	-4.61355	0
60.3108	0.00936536	-4.56325	0
60.3126	0.00942262	-4.50977	0
60.3148	0.00940353	-4.4582	0
60.317	0.00942262	-4.40217	0
60.3194	0.00938444	-4.34805	0
60.3214	0.00949897	-4.29648	0
60.324	0.00938444	-4.24109	0
60.326	0.00934627	-4.18888	0
60.3286	0.00944171	-4.13412	0
60.3314	0.00936536	-4.08	0
60.334	0.0093081	-4.02716	0
60.3366	0.00938444	-3.9724	0
60.3392	0.00946079	-3.92147	0
60.342	0.00932718	-3.86862	0
60.3452	0.00936536	-3.81259	0
60.3482	0.00942262	-3.75911	0
60.3514	0.00940353	-3.7069	0
60.3544	0.00940353	-3.6566	0
60.3574	0.00947988	-3.60376	0
60.3606	0.00946079	-3.55346	0
60.3642	0.00947988	-3.49934	0
60.3678	0.00938444	-3.44586	0
60.3714	0.00942262	-3.39429	0
60.4034	0.0093081	-3.0162	0
60.4082	0.00926992	-2.96505	0
60.4132	0.00944171	-2.91415	0
60.4184	0.00936536	-2.86401	0
60.4238	0.00944171	-2.81324	0
60.4294	0.00938444	-2.76253	0
60.4354	0.00932718	-2.71125	0
60.4416	0.00928901	-2.65997	0
60.448	0.00936536	-2.60888	0
60.4546	0.00934627	-2.55888	0
60.4616	0.0093081	-2.50842	0
60.469	0.00944171	-2.45657	0
60.4766	0.00938444	-2.40637	0
60.4848	0.00932718	-2.35458	0
60.4934	0.00947988	-2.30362	0
60.5024	0.00936536	-2.25285	0
60.5118	0.00942262	-2.20182	0
60.5216	0.0093081	-2.15111	0
60.5322	0.00938444	-2.10053	0
60.543	0.00947988	-2.05033	0
60.5548	0.00934627	-1.99994	0
60.567	0.00946079	-1.94981	0
60.5802	0.00938444	-1.8991	0
60.5942	0.00938444	-1.84865	0
60.6092	0.00938444	-1.79839	0
60.625	0.00928901	-1.74806	0
60.6422	0.00934627	-1.69767	0
60.6604	0.00934627	-1.64753	0
60.6804	0.00936536	-1.59695	0
60.702	0.00934627	-1.54637	0
60.725	0.00944171	-1.49611	0
60.7498	0.00938444	-1.4461	0
60.7778	0.0093081	-1.39546	0
60.807	0.00932718	-1.34539	0
60.8396	0.00932718	-1.29532	0
60.8764	0.00932718	-1.24524	0
60.916	0.00940353	-1.19466	0
60.9606	0.00936536	-1.14446	0
61.0102	0.00942262	-1.09363	0
61.0652	0.00926992	-1.04349	0
61.1278	0.00940353	-0.992341	0
61.1992	0.00936536	-0.942015	0
61.2798	0.00946079	-0.891753	0
61.3732	0.00932718	-0.841681	0
61.481	0.00934627	-0.791355	0
61.6066	0.00932718	-0.74122	0
61.7558	0.00934627	-0.690703	0
61.9338	0.00940353	-0.640631	0
62.1548	0.00938444	-0.590624	0
62.4268	0.00942262	-0.540234	0
62.7786	0.00946079	-0.489717	0
63.2604	0.00947988	-0.439643	0
63.8846	0.0093081	-0.389563	0
64.772	0.00940353	-0.339533	0
65.0528	0.00934627	-0.327874	0
65.0534	0.00936536	-0.327136	0
66.5364	0.00942262	-0.277106	0
68.959	0.00947988	-0.22702	0
73.466	0.00934627	-0.176939	0
83.466	0.00936536	-0.128571	0
93.466	0.00928901	-0.105202	0
103.466	0.00925083	-0.0903094	0
113.466	0.00932718	-0.0799039	0
123.466	0.00936536	-0.0715731	0
133.466	0.00944171	-0.0648843	0
143.466	0.00942262	-0.0593219	0
153.466	0.00934627	-0.0548733	0
163.466	0.00940353	-0.0508575	0
173.466	0.00936536	-0.047739	0
183.466	0.00936536	-0.0450936	0
193.466	0.00946079	-0.0425085	0
203.466	0.00942262	-0.0404038	0
213.466	0.00928901	-0.0385395	0
223.466	0.00925083	-0.0368153	0
233.466	0.00934627	-0.0353633	0
243.466	0.00928901	-0.0339814	0
253.466	0.00934627	-0.0326147	0
263.466	0.00934627	-0.0314796	0
273.466	0.00932718	-0.0303725	0
283.466	0.00940353	-0.029373	0
293.466	0.00934627	-0.0284141	0
303.466	0.00938444	-0.0276086	0
313.466	0.00932718	-0.0268585	0
323.466	0.00932718	-0.0260472	0
333.466	0.00936536	-0.0252799	0
343.466	0.00942262	-0.0246691	0
353.466	0.0093081	-0.0240437	0
363.466	0.00936536	-0.0234201	0
373.466	0.00934627	-0.0228475	0
383.466	0.00932718	-0.0223175	0
393.466	0.00938444	-0.0216666	0
403.466	0.00938444	-0.0211716	0
413.466	0.00936536	-0.0207987	0
423.466	0.00932718	-0.0203743	0
433.466	0.00934627	-0.0199252	0
439.915	0.00938444	-0.0196032	0
439.916	0.00934627	-0.0197343	0