File: EXPERIMENTAL/DATA/Cycling data Master thesis/I-cell/2024-04-25_JP_sample-A4-02-extra_M-cell_Cu-Li-Cellgard2400-separator_25muL-LiFSI-in-DME_outside-glovebox_sigma-0.02_low-OCV_Deltax110.2mm_02_MB_C11.txt
time/s	Ewe/V	I/mA	error
60.053	2.2873	-0.025006	0
60.1432	0.0090992	-7.7691	0
60.1438	0.00906102	-7.7067	0
60.1444	0.00898467	-7.64589	0
60.145	0.00900376	-7.58565	0
60.1456	0.00908011	-7.52681	0
60.1462	0.00904193	-7.46975	0
60.1468	0.00894649	-7.41492	0
60.1474	0.00898467	-7.36098	0
60.148	0.00892741	-7.30736	0
60.1486	0.00900376	-7.25616	0
60.1492	0.00896558	-7.20476	0
60.15	0.00904193	-7.13899	0
60.1508	0.00906102	-7.07615	0
60.1516	0.00906102	-7.01445	0
60.1524	0.00900376	-6.95364	0
60.1532	0.00904193	-6.89499	0
60.154	0.00908011	-6.83787	0
60.1548	0.00904193	-6.78202	0
60.1556	0.00898467	-6.72846	0
60.1564	0.00904193	-6.67592	0
60.1572	0.00902284	-6.6244	0
60.1582	0.00892741	-6.56047	0
60.1592	0.00898467	-6.50074	0
60.1602	0.00894649	-6.44153	0
60.1612	0.00902284	-6.38485	0
60.1622	0.00894649	-6.32811	0
60.1632	0.00896558	-6.27385	0
60.1642	0.00898467	-6.22036	0
60.1652	0.00906102	-6.16915	0
60.1662	0.0090992	-6.11846	0
60.1674	0.00913737	-6.05987	0
60.1686	0.00906102	-6.00225	0
60.1698	0.00913737	-5.94748	0
60.171	0.00900376	-5.89252	0
60.1722	0.00900376	-5.84011	0
60.1734	0.00892741	-5.78922	0
60.1748	0.00898467	-5.72956	0
60.1762	0.00908011	-5.67415	0
60.1776	0.00902284	-5.62002	0
60.179	0.00892741	-5.56627	0
60.1804	0.00902284	-5.51418	0
60.1818	0.00911828	-5.46234	0
60.1834	0.0090992	-5.40719	0
60.185	0.00900376	-5.35217	0
60.1866	0.00902284	-5.29899	0
60.1882	0.00900376	-5.24785	0
60.1898	0.00892741	-5.19735	0
60.1916	0.0090992	-5.14239	0
60.1934	0.00908011	-5.08889	0
60.1952	0.00908011	-5.03769	0
60.197	0.00900376	-4.98674	0
60.199	0.00896558	-4.93267	0
60.201	0.00913737	-4.87899	0
60.2032	0.00896558	-4.82371	0
60.2052	0.00911828	-4.77352	0
60.2074	0.00906102	-4.7199	0
60.2096	0.00904193	-4.66895	0
60.2118	0.00898467	-4.61876	0
60.2142	0.00908011	-4.5661	0
60.2166	0.00900376	-4.51394	0
60.2192	0.00904193	-4.46006	0
60.2218	0.00900376	-4.40765	0
60.2244	0.00906102	-4.35708	0
60.2272	0.00898467	-4.30384	0
60.23	0.00913737	-4.25263	0
60.233	0.00906102	-4.19933	0
60.236	0.00904193	-4.14781	0
60.239	0.00904193	-4.09705	0
60.2422	0.00900376	-4.04648	0
60.2454	0.00906102	-3.99629	0
60.2488	0.00900376	-3.94445	0
60.2524	0.00898467	-3.89115	0
60.2562	0.00902284	-3.83816	0
60.26	0.00894649	-3.78638	0
60.2638	0.00904193	-3.73518	0
60.2678	0.00898467	-3.68442	0
60.272	0.0090992	-3.63239	0
60.2762	0.00898467	-3.58226	0
60.2806	0.00898467	-3.53125	0
60.2852	0.00904193	-3.48068	0
60.2898	0.00892741	-3.43056	0
60.2946	0.00898467	-3.3805	0
60.2996	0.00898467	-3.33031	0
60.3048	0.00898467	-3.27898	0
60.3104	0.00900376	-3.22612	0
60.3162	0.00913737	-3.17485	0
60.3222	0.00904193	-3.1225	0
60.3282	0.00908011	-3.07244	0
60.3344	0.00900376	-3.02143	0
60.341	0.00900376	-2.97035	0
60.3478	0.00917555	-2.91915	0
60.3548	0.00911828	-2.86902	0
60.362	0.00900376	-2.8189	0
60.3696	0.00904193	-2.76731	0
60.3776	0.00898467	-2.71719	0
60.3856	0.00900376	-2.66688	0
60.394	0.00896558	-2.61624	0
60.4028	0.00904193	-2.56599	0
60.4118	0.00902284	-2.51549	0
60.4216	0.00904193	-2.46403	0
60.4314	0.00896558	-2.41372	0
60.4418	0.00917555	-2.36283	0
60.4526	0.00900376	-2.31175	0
60.4638	0.00904193	-2.26144	0
60.4756	0.00900376	-2.20966	0
60.488	0.00898467	-2.15845	0
60.5006	0.00902284	-2.10827	0
60.5138	0.00902284	-2.05751	0
60.5276	0.0090992	-2.007	0
60.5422	0.00900376	-1.95656	0
60.5572	0.00906102	-1.90612	0
60.573	0.0090992	-1.85581	0
60.5896	0.00906102	-1.80447	0
60.607	0.00900376	-1.75422	0
60.6256	0.0090992	-1.70302	0
60.645	0.0090992	-1.65251	0
60.6656	0.00904193	-1.60169	0
60.687	0.00900376	-1.5515	0
60.7098	0.00906102	-1.50132	0
60.7338	0.00904193	-1.45119	0
60.7594	0.0090992	-1.40088	0
60.7868	0.00900376	-1.35069	0
60.8164	0.00900376	-1.3005	0
60.8482	0.00904193	-1.25	0
60.8826	0.00913737	-1.19994	0
60.9202	0.00906102	-1.14943	0
60.9606	0.00906102	-1.09931	0
61.006	0.00898467	-1.04906	0
61.0544	0.00902284	-0.998365	0
61.1108	0.00908011	-0.948305	0
61.1728	0.00908011	-0.897545	0
61.2438	0.00908011	-0.846786	0
61.3246	0.00904193	-0.796726	0
61.4172	0.00902284	-0.746412	0
61.5266	0.00902284	-0.696098	0
61.656	0.00915646	-0.646038	0
61.8164	0.0090992	-0.595851	0
62.0144	0.0090992	-0.545727	0
62.2728	0.00906102	-0.49554	0
62.6184	0.0090992	-0.445353	0
63.157	0.00900376	-0.395315	0
63.9338	0.00908011	-0.345287	0
65.0528	0.00898467	-0.302098	0
65.0534	0.00900376	-0.301487	0
67.4334	0.00906102	-0.251394	0
72.45	0.00894649	-0.201353	0
82.45	0.00902284	-0.154403	0
92.45	0.00911828	-0.129023	0
102.45	0.00900376	-0.112881	0
112.45	0.0090992	-0.100684	0
122.45	0.00894649	-0.0914141	0
132.45	0.00906102	-0.0841416	0
142.45	0.00915646	-0.0777091	0
152.45	0.00902284	-0.0724918	0
162.45	0.00900376	-0.0676117	0
172.45	0.00900376	-0.0635015	0
182.45	0.00904193	-0.0597412	0
192.45	0.00904193	-0.05642	0
202.45	0.00906102	-0.0532578	0
212.45	0.00911828	-0.0507636	0
222.45	0.00902284	-0.0480468	0
232.45	0.0090992	-0.0456227	0
242.45	0.00894649	-0.0438755	0
252.45	0.00894649	-0.0418342	0
262.45	0.00898467	-0.0399805	0
266.462	0.00902284	-0.0391123	0
266.463	0.00902284	-0.039284	0