File: EXPERIMENTAL/DATA/Electrochemical-cycling/2024-06-14_S04_Icell_t0020_C0500_J01_deltaX-110,1mm_02_MB_C04.txt
time/s	Ewe/V	I/mA	error
60.053	2.37662	-0.0250249	0
60.1432	0.00921272	-8.79328	0
60.1436	0.0092509	-8.72443	0
60.144	0.00934635	-8.65761	0
60.1444	0.00928908	-8.59085	0
60.1448	0.00930818	-8.52486	0
60.1452	0.00932727	-8.46097	0
60.1456	0.00926999	-8.39632	0
60.146	0.00934635	-8.33236	0
60.1464	0.00938454	-8.26968	0
60.1468	0.00932727	-8.20808	0
60.1472	0.00928908	-8.14743	0
60.1476	0.00934635	-8.08717	0
60.148	0.00930818	-8.02818	0
60.1484	0.00926999	-7.96899	0
60.1488	0.00936545	-7.91083	0
60.1492	0.0092509	-7.85407	0
60.1496	0.00926999	-7.79775	0
60.15	0.00936545	-7.74181	0
60.1504	0.00926999	-7.68594	0
60.1508	0.00940363	-7.63204	0
60.1512	0.00932727	-7.5782	0
60.1516	0.00938454	-7.52424	0
60.152	0.00934635	-7.47186	0
60.1524	0.00936545	-7.42006	0
60.1528	0.00930818	-7.36909	0
60.1532	0.00930818	-7.31805	0
60.1538	0.00926999	-7.24322	0
60.1544	0.00938454	-7.16965	0
60.155	0.00928908	-7.09851	0
60.1556	0.00938454	-7.02704	0
60.1562	0.00926999	-6.95685	0
60.1568	0.0092509	-6.88895	0
60.1574	0.00936545	-6.82143	0
60.158	0.00928908	-6.75423	0
60.1586	0.00932727	-6.69021	0
60.1592	0.00926999	-6.62581	0
60.1598	0.00932727	-6.563	0
60.1604	0.00944181	-6.50115	0
60.161	0.00936545	-6.44063	0
60.1616	0.00923181	-6.38075	0
60.1622	0.00930818	-6.32156	0
60.1628	0.00938454	-6.26436	0
60.1634	0.00936545	-6.20689	0
60.164	0.00942272	-6.15178	0
60.1646	0.00926999	-6.09648	0
60.1652	0.00928908	-6.04226	0
60.1658	0.00940363	-5.98824	0
60.1664	0.00934635	-5.93612	0
60.167	0.00940363	-5.88425	0
60.1676	0.0092509	-5.8336	0
60.1682	0.00926999	-5.78231	0
60.169	0.00938454	-5.71797	0
60.1698	0.00936545	-5.6537	0
60.1706	0.00926999	-5.5907	0
60.1714	0.00932727	-5.52859	0
60.1722	0.00932727	-5.46871	0
60.173	0.00928908	-5.40901	0
60.1738	0.00934635	-5.35123	0
60.1746	0.00930818	-5.29358	0
60.1754	0.00936545	-5.23719	0
60.1762	0.00938454	-5.18317	0
60.177	0.00940363	-5.12933	0
60.1778	0.00934635	-5.07664	0
60.1786	0.00936545	-5.02516	0
60.1794	0.00934635	-4.97418	0
60.1802	0.0094609	-4.9241	0
60.1812	0.00932727	-4.86295	0
60.1822	0.00934635	-4.80338	0
60.1832	0.0094609	-4.74503	0
60.1842	0.00936545	-4.68839	0
60.1852	0.00926999	-4.63239	0
60.1862	0.00930818	-4.57754	0
60.1872	0.00928908	-4.52478	0
60.1882	0.00934635	-4.47254	0
60.1892	0.00938454	-4.4215	0
60.1904	0.00934635	-4.36206	0
60.1916	0.00934635	-4.30434	0
60.1928	0.00930818	-4.24656	0
60.194	0.00928908	-4.19196	0
60.1952	0.00936545	-4.138	0
60.1964	0.00932727	-4.08594	0
60.1976	0.00942272	-4.03541	0
60.1988	0.00936545	-3.98425	0
60.2002	0.00938454	-3.92793	0
60.2016	0.00932727	-3.87225	0
60.203	0.0092509	-3.81809	0
60.2044	0.00928908	-3.76668	0
60.2058	0.00942272	-3.71659	0
60.2074	0.00940363	-3.66047	0
60.209	0.00930818	-3.60593	0
60.2106	0.00928908	-3.55241	0
60.2122	0.00932727	-3.50137	0
60.2138	0.00928908	-3.45116	0
60.2156	0.00936545	-3.3972	0
60.2174	0.00938454	-3.34464	0
60.2192	0.00923181	-3.29347	0
60.2212	0.00934635	-3.23906	0
60.2232	0.00936545	-3.18663	0
60.2252	0.00934635	-3.13572	0
60.2274	0.00942272	-3.0808	0
60.2296	0.00942272	-3.02868	0
60.2318	0.00942272	-2.97853	0
60.2342	0.00940363	-2.92565	0
60.2366	0.00928908	-2.87493	0
60.2392	0.00942272	-2.82192	0
60.2418	0.00923181	-2.77082	0
60.2446	0.00936545	-2.71896	0
60.2474	0.00940363	-2.66811	0
60.2504	0.00932727	-2.61523	0
60.2536	0.00940363	-2.56254	0
60.2568	0.00932727	-2.51138	0
60.2602	0.00938454	-2.45881	0
60.2638	0.00938454	-2.40758	0
60.2674	0.00926999	-2.35757	0
60.2712	0.00934635	-2.30729	0
60.2752	0.00938454	-2.25619	0
60.2794	0.00938454	-2.20573	0
60.284	0.00928908	-2.15291	0
60.2886	0.00936545	-2.10289	0
60.2936	0.00936545	-2.05192	0
60.2986	0.00934635	-2.00184	0
60.3042	0.00932727	-1.94991	0
60.31	0.00926999	-1.89957	0
60.316	0.00932727	-1.84911	0
60.3224	0.0092509	-1.79871	0
60.3294	0.00919363	-1.74786	0
60.3368	0.00934635	-1.69638	0
60.3446	0.00947999	-1.64522	0
60.3528	0.00932727	-1.59507	0
60.3618	0.00928908	-1.54492	0
60.3712	0.00932727	-1.49421	0
60.3814	0.00930818	-1.44419	0
60.3924	0.00932727	-1.39321	0
60.4042	0.00932727	-1.34294	0
60.417	0.00932727	-1.2921	0
60.431	0.00942272	-1.24157	0
60.4464	0.00930818	-1.19002	0
60.4632	0.00938454	-1.13956	0
60.4812	0.00928908	-1.08935	0
60.5012	0.00930818	-1.03908	0
60.5238	0.00930818	-0.988548	0
60.5488	0.0092509	-0.937957	0
60.5762	0.00936545	-0.887939	0
60.6078	0.00938454	-0.837284	0
60.6436	0.00940363	-0.787265	0
60.6844	0.00938454	-0.737056	0
60.7318	0.00940363	-0.686146	0
60.7874	0.00921272	-0.635682	0
60.8532	0.00928908	-0.585155	0
60.9314	0.00928908	-0.534818	0
61.0274	0.00932727	-0.484481	0
61.175	0.00930818	-0.424746	0
61.3362	0.00944181	-0.374645	0
61.5518	0.00942272	-0.324563	0
61.8572	0.00928908	-0.274526	0
62.3124	0.00932727	-0.22452	0
63.0616	0.00940363	-0.174483	0
64.4964	0.00938454	-0.124471	0
68.078	0.00942272	-0.0744593	0
78.078	0.00938454	-0.0363603	0
80.0528	0.00936545	-0.033073	0