File: EXPERIMENTAL/DATA/Electrochemical-cycling/S-series/2024-07-04_S29_Icell_t1800_C0010_J01_deltaX-109,9mm_12mmLi-polished_04_CP_C06.txt
time/s	Ewe/V	I/mA	error	Ece/V
1860.21	-0.0169874	-1.12402	0	-0.000637735
1860.21	-0.028214	-1.13091	0	-0.000717916
1860.21	-0.0321741	-1.13106	0	8.1944e-05
1860.21	-0.0336442	-1.13098	0	-5.16839e-05
1860.21	-0.0347706	-1.13086	0	-3.25942e-05
1860.21	-0.0363934	-1.13097	0	4.37646e-05
1860.21	-0.0379208	-1.13099	0	-3.25942e-05
1860.21	-0.0392381	-1.13099	0	-7.07736e-05
1860.21	-0.0404218	-1.13087	0	8.1944e-05
1860.21	-0.04151	-1.13088	0	-1.35045e-05
1860.21	-0.0426365	-1.131	0	5.58521e-06
1860.21	-0.0439729	-1.1309	0	4.37646e-05
1860.21	-0.0451184	-1.13101	0	0.000101034
1860.21	-0.0463976	-1.13098	0	-1.35045e-05
1860.21	-0.0474094	-1.13084	0	0.000101034
1860.21	-0.0486695	-1.13094	0	5.58521e-06
1860.21	-0.0500059	-1.131	0	0.000101034
1860.21	-0.0510178	-1.131	0	5.58521e-06
1860.21	-0.0522206	-1.13097	0	8.1944e-05
1860.21	-0.0533661	-1.13092	0	5.58521e-06
1860.21	-0.0544352	-1.13093	0	2.46749e-05
1860.22	-0.0555235	-1.13095	0	2.46749e-05
1860.22	-0.0567263	-1.13099	0	2.46749e-05
1860.22	-0.0577763	-1.13096	0	-5.16839e-05
1860.22	-0.0587882	-1.13094	0	-1.35045e-05
1860.22	-0.0598955	-1.13094	0	2.46749e-05
1860.22	-0.0611556	-1.13088	0	2.46749e-05
1860.22	-0.0623393	-1.13096	0	0.000101034
1860.22	-0.0634084	-1.13095	0	0.000120123
1860.22	-0.0647067	-1.13093	0	-7.07736e-05
1860.22	-0.065814	-1.13086	0	-1.35045e-05
1860.22	-0.0669977	-1.13095	0	5.58521e-06
1860.22	-0.0681241	-1.13095	0	-1.35045e-05
1860.22	-0.0693269	-1.13097	0	4.37646e-05
1860.23	-0.0705106	-1.13096	0	4.37646e-05
1860.23	-0.0716943	-1.13102	0	-3.25942e-05
1860.23	-0.0728207	-1.13094	0	2.46749e-05
1860.23	-0.0739853	-1.13097	0	0.000177393
1860.23	-0.075169	-1.13098	0	2.46749e-05
1860.23	-0.0763336	-1.13095	0	6.28543e-05
1860.23	-0.0775173	-1.13092	0	-0.000128043
1860.23	-0.0786629	-1.13096	0	6.28543e-05
1860.23	-0.0796938	-1.13097	0	2.46749e-05
1860.24	-0.0808775	-1.13093	0	4.37646e-05
1860.24	-0.0818894	-1.13096	0	0.000120123
1860.24	-0.0829204	-1.13099	0	5.58521e-06
1860.24	-0.0839704	-1.13094	0	-5.16839e-05
1860.24	-0.0850777	-1.1309	0	8.1944e-05
1860.24	-0.0863187	-1.13097	0	-0.000128043
1860.24	-0.0874642	-1.13096	0	-1.35045e-05
1860.24	-0.0885143	-1.13095	0	2.46749e-05
1860.25	-0.0896216	-1.1309	0	0.000101034
1860.25	-0.0907289	-1.131	0	4.37646e-05
1860.25	-0.0917981	-1.13091	0	8.1944e-05
1860.25	-0.09281	-1.13102	0	0.000139213
1860.25	-0.0940891	-1.13088	0	4.37646e-05
1860.25	-0.095101	-1.13093	0	5.58521e-06
1860.25	-0.0962656	-1.131	0	-1.35045e-05
1860.26	-0.0974111	-1.13092	0	-3.25942e-05
1860.26	-0.0986139	-1.13092	0	2.46749e-05
1860.26	-0.0997785	-1.13099	0	0.000158303
1860.26	-0.100886	-1.13092	0	0.000120123
1860.26	-0.101917	-1.13094	0	4.37646e-05
1860.26	-0.102948	-1.13097	0	8.1944e-05
1860.26	-0.103998	-1.13098	0	2.46749e-05
1860.27	-0.105048	-1.13098	0	5.58521e-06
1860.27	-0.106098	-1.13095	0	2.46749e-05
1860.27	-0.107282	-1.13098	0	-7.07736e-05
1860.27	-0.10837	-1.13097	0	0.000101034
1860.27	-0.109496	-1.13099	0	6.28543e-05
1860.27	-0.110527	-1.13098	0	5.58521e-06
1860.28	-0.111539	-1.13097	0	-3.25942e-05
1860.28	-0.112608	-1.13099	0	0.000101034
1860.28	-0.113716	-1.13102	0	6.28543e-05
1860.28	-0.114823	-1.131	0	6.28543e-05
1860.28	-0.116045	-1.13092	0	4.37646e-05
1860.29	-0.11719	-1.13096	0	0.000120123
1860.29	-0.118259	-1.13094	0	8.1944e-05
1860.29	-0.119424	-1.13094	0	2.46749e-05
1860.29	-0.120493	-1.13088	0	8.1944e-05
1860.29	-0.121562	-1.13098	0	2.46749e-05
1860.29	-0.12267	-1.13097	0	-3.25942e-05
1860.3	-0.123739	-1.13102	0	4.37646e-05
1860.3	-0.124827	-1.13098	0	0.000120123
1860.3	-0.125953	-1.13098	0	-3.25942e-05
1860.3	-0.127061	-1.13098	0	0.000158303
1860.31	-0.128206	-1.13094	0	2.46749e-05
1860.31	-0.12939	-1.13102	0	5.58521e-06
1860.31	-0.130402	-1.13094	0	0.000101034
1860.31	-0.1317	-1.13092	0	8.1944e-05
1860.32	-0.13275	-1.13096	0	0.000101034
1860.32	-0.133762	-1.1309	0	-3.25942e-05
1860.32	-0.13485	-1.13095	0	8.1944e-05
1860.32	-0.1359	-1.13094	0	8.1944e-05
1860.33	-0.136931	-1.13096	0	0.000139213
1860.33	-0.138115	-1.13098	0	4.37646e-05
1860.33	-0.139146	-1.13094	0	-3.25942e-05
1860.33	-0.140196	-1.13098	0	-1.35045e-05
1860.34	-0.141418	-1.13099	0	4.37646e-05
1860.34	-0.142563	-1.13097	0	2.46749e-05
1860.34	-0.143613	-1.13097	0	-8.98633e-05
1860.35	-0.144702	-1.13095	0	5.58521e-06
1860.35	-0.145733	-1.13092	0	-1.35045e-05
1860.36	-0.146802	-1.131	0	5.58521e-06
1860.36	-0.147814	-1.13093	0	6.28543e-05
1860.37	-0.148902	-1.13092	0	2.46749e-05
1860.37	-0.149914	-1.13097	0	2.46749e-05
1860.39	-0.151021	-1.13098	0	4.37646e-05
1860.41	-0.149914	-1.13088	0	6.28543e-05
1860.42	-0.148902	-1.13096	0	-0.000108953
1860.43	-0.147833	-1.131	0	0.000177393
1860.44	-0.146764	-1.13097	0	-5.16839e-05
1860.45	-0.145733	-1.13091	0	-8.98633e-05
1860.46	-0.144702	-1.13097	0	5.58521e-06
1860.47	-0.143671	-1.13099	0	5.58521e-06
1860.48	-0.14264	-1.13095	0	4.37646e-05
1860.48	-0.141609	-1.1309	0	-0.000108953
1860.49	-0.140597	-1.13095	0	4.37646e-05
1860.5	-0.139547	-1.13095	0	-1.35045e-05
1860.51	-0.138497	-1.13097	0	8.1944e-05
1860.53	-0.13739	-1.13092	0	6.28543e-05
1860.54	-0.136339	-1.13093	0	4.37646e-05
1860.55	-0.135289	-1.13097	0	6.28543e-05
1860.56	-0.134163	-1.1309	0	-7.07736e-05
1860.58	-0.133151	-1.13095	0	5.58521e-06
1860.59	-0.132044	-1.13093	0	-5.16839e-05
1860.61	-0.131013	-1.13093	0	-1.35045e-05
1860.62	-0.129963	-1.13092	0	0.000120123
1860.64	-0.128951	-1.13098	0	-7.07736e-05
1860.66	-0.127939	-1.13093	0	6.28543e-05
1860.67	-0.126813	-1.13103	0	2.46749e-05
1860.7	-0.125782	-1.13094	0	5.58521e-06
1860.72	-0.124732	-1.13092	0	2.46749e-05
1860.74	-0.12372	-1.13099	0	-0.000185312
1860.76	-0.122651	-1.13097	0	-5.16839e-05
1860.78	-0.121639	-1.13104	0	0.000158303
1860.81	-0.120608	-1.13099	0	8.1944e-05
1860.84	-0.119577	-1.13099	0	-0.000204402
1860.87	-0.118565	-1.13097	0	0.000101034
1860.9	-0.117553	-1.13094	0	6.28543e-05
1860.93	-0.116541	-1.13088	0	8.1944e-05
1860.97	-0.115491	-1.131	0	0.000120123
1861.01	-0.114479	-1.13103	0	-3.25942e-05
1861.06	-0.113467	-1.13095	0	-5.16839e-05
1861.11	-0.112456	-1.13099	0	0.000139213
1861.16	-0.111405	-1.13105	0	-5.16839e-05
1861.24	-0.110336	-1.13092	0	-5.16839e-05
1861.32	-0.109324	-1.13102	0	0.000101034
1861.41	-0.108313	-1.13095	0	-7.07736e-05
1861.53	-0.107301	-1.13098	0	2.46749e-05
1861.67	-0.106289	-1.131	0	0.000101034
1861.9	-0.105277	-1.13095	0	-8.98633e-05
1862.2	-0.104265	-1.13093	0	-0.000204402
1862.78	-0.103234	-1.13094	0	-8.98633e-05
1868.75	-0.104246	-1.13094	0	-1.35045e-05
1872.26	-0.105258	-1.13098	0	8.1944e-05
1878.74	-0.106308	-1.13096	0	2.46749e-05
1888.74	-0.106251	-1.13098	0	-1.35045e-05
1896.21	-0.10585	-1.131	0	2.46749e-05