File: EXPERIMENTAL/DATA/Electrochemical-cycling/S-series/2024-06-25_S13_Icell_t0030_C0010_J01_deltaX-110,3mm_02_MB_C06.txt
time/s	Ewe/V	I/mA	error
60.053	2.86488	-0.0250234	0
60.1432	0.00937036	-6.77601	0
60.1436	0.00923672	-6.70676	0
60.144	0.0092749	-6.63935	0
60.1444	0.00935127	-6.57373	0
60.1448	0.00933218	-6.50912	0
60.1452	0.00935127	-6.44585	0
60.1456	0.0092749	-6.38468	0
60.146	0.00931308	-6.32485	0
60.1464	0.00937036	-6.2661	0
60.1468	0.00937036	-6.20888	0
60.1472	0.00935127	-6.15344	0
60.1476	0.00929399	-6.0987	0
60.148	0.00931308	-6.04542	0
60.1484	0.00937036	-5.99284	0
60.1488	0.00935127	-5.9416	0
60.1494	0.00933218	-5.8679	0
60.15	0.00942764	-5.79508	0
60.1506	0.00940854	-5.72506	0
60.1512	0.00929399	-5.6574	0
60.1518	0.00931308	-5.59171	0
60.1524	0.00944673	-5.52729	0
60.153	0.00931308	-5.46587	0
60.1536	0.00929399	-5.40553	0
60.1542	0.00944673	-5.3478	0
60.1548	0.0092749	-5.29146	0
60.1554	0.00937036	-5.23583	0
60.156	0.00929399	-5.18249	0
60.1566	0.00944673	-5.12998	0
60.1572	0.00931308	-5.07925	0
60.158	0.00940854	-5.01369	0
60.1588	0.00935127	-4.95055	0
60.1596	0.00946582	-4.889	0
60.1604	0.00940854	-4.82916	0
60.1612	0.00940854	-4.7713	0
60.162	0.00940854	-4.71567	0
60.1628	0.00933218	-4.66169	0
60.1636	0.00933218	-4.60944	0
60.1644	0.00931308	-4.55832	0
60.1654	0.00931308	-4.49652	0
60.1664	0.00931308	-4.43764	0
60.1674	0.00935127	-4.37946	0
60.1684	0.00933218	-4.32307	0
60.1694	0.00935127	-4.26915	0
60.1704	0.00929399	-4.21792	0
60.1714	0.00935127	-4.16578	0
60.1726	0.00935127	-4.10786	0
60.1738	0.00940854	-4.05089	0
60.175	0.00933218	-3.99596	0
60.1762	0.00942764	-3.94256	0
60.1774	0.00944673	-3.89055	0
60.1786	0.00933218	-3.84052	0
60.18	0.00938945	-3.78464	0
60.1814	0.00933218	-3.72964	0
60.1828	0.009504	-3.67694	0
60.1842	0.00929399	-3.62634	0
60.1856	0.00931308	-3.57586	0
60.1872	0.00940854	-3.52099	0
60.1888	0.00942764	-3.46702	0
60.1906	0.00937036	-3.41068	0
60.1924	0.00938945	-3.35454	0
60.1942	0.00935127	-3.30108	0
60.196	0.00937036	-3.2492	0
60.1978	0.00935127	-3.19891	0
60.1998	0.00937036	-3.14583	0
60.2018	0.00933218	-3.09351	0
60.2038	0.009504	-3.04208	0
60.206	0.00946582	-2.98937	0
60.2082	0.00931308	-2.93833	0
60.2106	0.00933218	-2.88358	0
60.213	0.00944673	-2.83196	0
60.2156	0.00933218	-2.77767	0
60.2182	0.00937036	-2.72458	0
60.2208	0.00940854	-2.67455	0
60.2236	0.00948491	-2.62299	0
60.2264	0.00937036	-2.57271	0
60.2294	0.00944673	-2.51943	0
60.2326	0.00942764	-2.46768	0
60.2358	0.00938945	-2.4167	0
60.2392	0.00940854	-2.36463	0
60.2428	0.00946582	-2.31174	0
60.2464	0.00938945	-2.26056	0
60.2504	0.00946582	-2.20818	0
60.2544	0.00935127	-2.15592	0
60.2586	0.00940854	-2.10563	0
60.263	0.00935127	-2.05408	0
60.2676	0.00938945	-2.00334	0
60.2724	0.00940854	-1.95306	0
60.2774	0.00940854	-1.90246	0
60.2828	0.00938945	-1.85115	0
60.2884	0.00925581	-1.80004	0
60.2944	0.00942764	-1.74817	0
60.3006	0.00931308	-1.69788	0
60.3072	0.00937036	-1.64779	0
60.3142	0.00931308	-1.59712	0
60.3216	0.00938945	-1.54633	0
60.3296	0.00929399	-1.4954	0
60.338	0.00940854	-1.44512	0
60.347	0.00935127	-1.39426	0
60.3568	0.00946582	-1.34226	0
60.3672	0.00937036	-1.29191	0
60.3782	0.00946582	-1.24182	0
60.39	0.00938945	-1.19147	0
60.403	0.00938945	-1.14048	0
60.417	0.00937036	-1.09026	0
60.4318	0.00929399	-1.04023	0
60.4488	0.00942764	-0.989883	0
60.4672	0.00937036	-0.939089	0
60.4874	0.00937036	-0.889058	0
60.5104	0.00940854	-0.838455	0
60.5358	0.0095231	-0.787661	0
60.5648	0.00940854	-0.737631	0
60.598	0.00948491	-0.687473	0
60.6356	0.00933218	-0.637061	0
60.6798	0.00942764	-0.58684	0
60.7322	0.00931308	-0.53681	0
60.7938	0.00948491	-0.486398	0
60.8702	0.00938945	-0.436176	0
60.9746	0.00935127	-0.384807	0
61.0982	0.009504	-0.334789	0
61.2646	0.00940854	-0.284568	0
61.5014	0.00938945	-0.234245	0
61.8662	0.00931308	-0.184144	0
62.5004	0.00937036	-0.134107	0
63.911	0.00942764	-0.0840642	0
69.7174	0.00942764	-0.0340593	0
79.7174	0.00933218	-0.0174819	0
89.7174	0.00938945	-0.0120647	0
99.7174	0.00929399	-0.00936181	0
109.717	0.00937036	-0.00789075	0
119.717	0.00931308	-0.00675755	0
120.053	0.00938945	-0.00673146	0