File: EXPERIMENTAL/DATA/Electrochemical-cycling/S-series/2024-07-02_S20_Icell_t1800_C0010_J01_deltaX-110,2mm_plating-stripping_04_CP_C02.txt
time/s	Ewe/V	I/mA	error
1860.26	-0.000105329	-0.194575	0
1860.27	-0.0510844	-0.19597	0
1860.28	-0.0927733	-0.19597	0
1860.31	-0.130816	-0.195971	0
1860.34	-0.166798	-0.195973	0
1860.41	-0.154467	-0.195964	0
1860.46	-0.119077	-0.195971	0
1863.31	-0.110373	-0.195971	0
1932.96	0.894111	-0.195966	0
1932.98	0.853358	-0.195961	0
1933	0.81499	-0.195969	0
1933.03	0.777768	-0.19597	0
1933.06	0.740565	-0.195964	0
1933.09	0.703935	-0.195961	0
1933.12	0.666865	-0.195966	0
1933.16	0.630426	-0.195971	0
1933.2	0.594826	-0.195971	0
1933.24	0.559551	-0.195969	0
1933.28	0.524123	-0.195973	0
1933.32	0.48879	-0.195965	0
1933.37	0.453229	-0.195966	0
1933.42	0.418125	-0.195969	0
1933.47	0.383194	-0.195975	0
1933.52	0.348109	-0.19597	0
1933.57	0.313617	-0.195968	0
1933.63	0.278399	-0.195964	0
1933.69	0.243696	-0.195971	0
1933.75	0.208746	-0.195967	0
1933.81	0.173967	-0.195968	0
1933.88	0.138921	-0.195966	0
1933.95	0.104581	-0.195971	0
1934.02	0.0697064	-0.195965	0
1934.11	0.0350993	-0.195966	0
1934.19	0.00117937	-0.195968	0
1934.29	-0.0331796	-0.195969	0
1934.41	-0.0673286	-0.195966	0
1934.86	-0.0821411	-0.195968	0
1946.77	-0.0756511	-0.195971	0
1962.37	-0.108559	-0.19597	0
2002.14	0.887736	-0.195964	0
2002.15	0.847536	-0.195969	0
2002.17	0.809512	-0.195966	0
2002.2	0.772366	-0.195963	0
2002.23	0.735449	-0.195968	0
2002.26	0.698762	-0.195967	0
2002.29	0.663086	-0.195964	0
2002.32	0.626761	-0.19597	0
2002.36	0.590474	-0.195966	0
2002.4	0.554206	-0.195963	0
2002.44	0.519236	-0.195968	0
2002.48	0.484037	-0.195966	0
2002.52	0.448476	-0.195963	0
2002.57	0.412704	-0.195966	0
2002.61	0.378002	-0.195972	0
2002.66	0.343166	-0.195968	0
2002.71	0.30831	-0.195964	0
2002.77	0.273169	-0.19597	0
2002.82	0.237531	-0.195975	0
2002.88	0.203305	-0.195969	0
2002.94	0.168603	-0.195968	0
2003	0.133881	-0.195968	0
2003.07	0.0995033	-0.195964	0
2003.14	0.0652397	-0.195964	0
2003.21	0.0310717	-0.195972	0
2003.3	-0.00351635	-0.19597	0
2003.39	-0.0374363	-0.195967	0
2003.51	-0.0716807	-0.19597	0
2009.61	-0.0656679	-0.195972	0
2025.39	-0.0983852	-0.195971	0
2069.73	0.897986	-0.195968	0
2069.75	0.857825	-0.195968	0
2069.77	0.819285	-0.195971	0
2069.79	0.78067	-0.195973	0
2069.82	0.743314	-0.195966	0
2069.85	0.704908	-0.195966	0
2069.88	0.668297	-0.195964	0
2069.91	0.632506	-0.195964	0
2069.94	0.596964	-0.195972	0
2069.98	0.561192	-0.195963	0
2070.02	0.525669	-0.195964	0
2070.06	0.489535	-0.195966	0
2070.1	0.454393	-0.195968	0
2070.14	0.419156	-0.195968	0
2070.19	0.3839	-0.195971	0
2070.23	0.348338	-0.195961	0
2070.28	0.313598	-0.195966	0
2070.33	0.278456	-0.195973	0
2070.38	0.243639	-0.195966	0
2070.44	0.207658	-0.195969	0
2070.49	0.17389	-0.195964	0
2070.55	0.13936	-0.195969	0
2070.62	0.104409	-0.195966	0
2070.68	0.0695919	-0.195967	0
2070.76	0.0348893	-0.195964	0
2070.83	0.000301307	-0.195971	0
2070.92	-0.0343249	-0.195964	0
2071.04	-0.0686075	-0.195967	0
2081.33	-0.0747921	-0.19597	0
2096.82	-0.1077	-0.19597	0
2135.42	0.884376	-0.195968	0
2135.44	0.843165	-0.195971	0
2135.46	0.805675	-0.195969	0
2135.48	0.767728	-0.195964	0
2135.51	0.730849	-0.195968	0
2135.54	0.694333	-0.195967	0
2135.57	0.65776	-0.195968	0
2135.6	0.621282	-0.195968	0
2135.63	0.585243	-0.195964	0
2135.67	0.548937	-0.195974	0
2135.71	0.513223	-0.195968	0
2135.74	0.477853	-0.195965	0
2135.78	0.442329	-0.195964	0
2135.83	0.406577	-0.195966	0
2135.87	0.371626	-0.195974	0
2135.91	0.336198	-0.195968	0
2135.96	0.300942	-0.19597	0
2136.01	0.26666	-0.195967	0
2136.06	0.2319	-0.195968	0
2136.11	0.19693	-0.195969	0
2136.17	0.162113	-0.195964	0
2136.23	0.126742	-0.195968	0
2136.29	0.0922879	-0.195971	0
2136.36	0.0568791	-0.195973	0
2136.43	0.0221765	-0.195962	0
2136.51	-0.0121824	-0.195964	0
2136.59	-0.0462551	-0.19597	0
2136.84	-0.0795833	-0.195969	0
2153.83	-0.0960183	-0.195971	0
2199.73	0.900067	-0.195968	0
2199.74	0.859256	-0.19597	0
2199.76	0.820163	-0.195965	0
2199.78	0.782082	-0.195966	0
2199.81	0.743715	-0.195968	0
2199.83	0.707103	-0.195966	0
2199.86	0.670568	-0.195969	0
2199.89	0.633671	-0.195964	0
2199.92	0.597517	-0.195968	0
2199.96	0.561879	-0.195968	0
2199.99	0.525268	-0.195966	0
2200.03	0.489229	-0.195971	0
2200.07	0.453801	-0.195966	0
2200.11	0.417686	-0.19597	0
2200.15	0.382526	-0.195966	0
2200.2	0.346888	-0.19597	0
2200.24	0.311536	-0.195967	0
2200.29	0.276318	-0.195966	0
2200.34	0.241444	-0.19597	0
2200.39	0.206436	-0.19597	0
2200.44	0.170798	-0.195967	0
2200.5	0.136325	-0.195968	0
2200.56	0.101775	-0.195972	0
2200.62	0.0669004	-0.195963	0
2200.69	0.0324842	-0.195971	0
2200.76	-0.00206564	-0.195967	0
2200.84	-0.0364628	-0.195968	0
2200.97	-0.0703636	-0.195968	0
2214.64	-0.0932505	-0.195967	0
2262.99	0.904209	-0.19597	0
2263.01	0.862253	-0.195964	0
2263.03	0.822473	-0.195971	0
2263.05	0.785232	-0.195961	0
2263.07	0.74654	-0.195971	0
2263.1	0.710157	-0.19597	0
2263.13	0.673622	-0.195971	0
2263.16	0.636534	-0.19597	0
2263.19	0.60019	-0.195973	0
2263.22	0.564437	-0.195977	0
2263.25	0.527921	-0.195965	0
2263.29	0.492245	-0.195967	0
2263.33	0.456455	-0.195968	0
2263.37	0.420664	-0.195963	0
2263.41	0.384129	-0.195957	0
2263.45	0.348415	-0.195971	0
2263.5	0.312529	-0.19597	0
2263.54	0.277483	-0.195969	0
2263.59	0.24194	-0.195964	0
2263.64	0.207524	-0.195968	0
2263.69	0.172669	-0.195964	0
2263.75	0.137737	-0.195971	0
2263.81	0.101966	-0.195964	0
2263.87	0.0673394	-0.195964	0
2263.94	0.0330568	-0.195969	0
2264.01	-0.00156935	-0.195972	0
2264.09	-0.0361765	-0.195972	0
2264.21	-0.0703636	-0.195964	0
2278.66	-0.099206	-0.195973	0
2325.56	0.896192	-0.195968	0
2325.57	0.856431	-0.195968	0
2325.59	0.816098	-0.19597	0
2325.61	0.778379	-0.195968	0
2325.64	0.738561	-0.195966	0
2325.66	0.700823	-0.195961	0
2325.69	0.664002	-0.195966	0
2325.72	0.626512	-0.195968	0
2325.75	0.589901	-0.195968	0
2325.78	0.553232	-0.195968	0
2325.82	0.516545	-0.195971	0
2325.86	0.480716	-0.19597	0
2325.89	0.444696	-0.195971	0
2325.93	0.408963	-0.19597	0
2325.97	0.372714	-0.195971	0
2326.01	0.337764	-0.19597	0
2326.06	0.302698	-0.195968	0
2326.1	0.26645	-0.195969	0
2326.15	0.230487	-0.195964	0
2326.2	0.19567	-0.195965	0
2326.26	0.160567	-0.195968	0
2326.31	0.125502	-0.195968	0
2326.37	0.09036	-0.195968	0
2326.43	0.0556765	-0.19597	0
2326.5	0.0206304	-0.195973	0
2326.57	-0.0137668	-0.195964	0
2326.65	-0.0478012	-0.195967	0
2330.5	-0.0811103	-0.195966	0
2352.22	-0.114076	-0.195975	0
2387.46	0.876894	-0.195967	0
2387.48	0.834155	-0.195968	0
2387.5	0.796246	-0.19597	0
2387.52	0.757	-0.195969	0
2387.54	0.718556	-0.195971	0
2387.57	0.680399	-0.195968	0
2387.6	0.643997	-0.195967	0
2387.63	0.607768	-0.195966	0
2387.66	0.570946	-0.195966	0
2387.69	0.53443	-0.195966	0
2387.73	0.49759	-0.195974	0
2387.76	0.46157	-0.195974	0
2387.8	0.425627	-0.195968	0
2387.84	0.389817	-0.195973	0
2387.88	0.35437	-0.195964	0
2387.92	0.31837	-0.195971	0
2387.97	0.28277	-0.195967	0
2388.01	0.248068	-0.195966	0
2388.06	0.21306	-0.195971	0
2388.11	0.178204	-0.195972	0
2388.16	0.142414	-0.195968	0
2388.22	0.107368	-0.195968	0
2388.28	0.0717107	-0.195965	0
2388.34	0.0365118	-0.195963	0
2388.42	0.00108393	-0.19597	0
2388.49	-0.0333896	-0.195975	0
2388.61	-0.0675385	-0.195965	0
2401.35	-0.100714	-0.19597	0
2448.78	0.891458	-0.19597	0
2448.8	0.851735	-0.195968	0
2448.82	0.810772	-0.195973	0
2448.84	0.772996	-0.195966	0
2448.86	0.73501	-0.195973	0
2448.89	0.697845	-0.195969	0
2448.91	0.66194	-0.195969	0
2448.94	0.62447	-0.19597	0
2448.97	0.587286	-0.195968	0
2449	0.550751	-0.195968	0
2449.03	0.514789	-0.195966	0
2449.07	0.478654	-0.195973	0
2449.11	0.442177	-0.195969	0
2449.14	0.406081	-0.195967	0
2449.18	0.370156	-0.195971	0
2449.22	0.335339	-0.195965	0
2449.26	0.300732	-0.195964	0
2449.31	0.265362	-0.195971	0
2449.35	0.229915	-0.19597	0
2449.4	0.194811	-0.195969	0
2449.45	0.159383	-0.19597	0
2449.51	0.12449	-0.195971	0
2449.56	0.0902454	-0.195971	0
2449.62	0.0547984	-0.195972	0
2449.69	0.0203059	-0.195961	0
2449.76	-0.0145303	-0.195967	0
2449.84	-0.0489084	-0.195966	0
2452.76	-0.0830192	-0.19597	0
2479	-0.115832	-0.195973	0
2509.66	0.872141	-0.195964	0
2509.68	0.830948	-0.195968	0
2509.7	0.791168	-0.195973	0
2509.72	0.753774	-0.195967	0
2509.74	0.715617	-0.195974	0
2509.77	0.678242	-0.195967	0
2509.8	0.641096	-0.19597	0
2509.83	0.604904	-0.195964	0
2509.85	0.569152	-0.195971	0
2509.89	0.531968	-0.19597	0
2509.92	0.494822	-0.195968	0
2509.96	0.458726	-0.195972	0
2509.99	0.422764	-0.195971	0
2510.03	0.386229	-0.195969	0
2510.07	0.350018	-0.195975	0
2510.11	0.315297	-0.19597	0
2510.15	0.2788	-0.195967	0
2510.2	0.243906	-0.195966	0
2510.24	0.207619	-0.195966	0
2510.29	0.172325	-0.195973	0
2510.34	0.136993	-0.195969	0
2510.4	0.101584	-0.195975	0
2510.46	0.0669386	-0.195967	0
2510.52	0.0323697	-0.195973	0
2510.59	-0.00177932	-0.195967	0
2510.67	-0.0365773	-0.195968	0
2510.79	-0.0701536	-0.195977	0
2524.08	-0.103005	-0.195971	0
2545.65	-0.117073	-0.19597	0