File: EXPERIMENTAL/DATA/Electrochemical-cycling/S-series/2024-07-04_S26_Icell_t1800_C0010_J01_deltaX-109,8mm_12mmLi_02_MB_C02.txt
time/s	Ewe/V	I/mA	error	Ece/V
60.053	2.99035	-0.0250311	0	-0.000581471
60.174	0.00936503	-23.7814	0	5.80953e-05
60.1754	0.00940321	-23.5816	0	0.000153525
60.1766	0.00946047	-23.4142	0	-1.82481e-05
60.1778	0.00932685	-23.2507	0	8.37723e-07
60.1792	0.00940321	-23.0674	0	5.80953e-05
60.181	0.00944138	-22.8415	0	-5.64199e-05
60.1828	0.00938412	-22.627	0	8.37723e-07
60.1846	0.00936503	-22.4176	0	-5.64199e-05
60.1864	0.00934594	-22.2172	0	-1.82481e-05
60.1882	0.00940321	-22.0237	0	-3.7334e-05
60.19	0.00942229	-21.8449	0	-3.7334e-05
60.192	0.00934594	-21.6444	0	8.37723e-07
60.1938	0.00934594	-21.4694	0	-1.82481e-05
60.1958	0.00940321	-21.2855	0	-3.7334e-05
60.1976	0.00951773	-21.1264	0	-3.7334e-05
60.1996	0.00934594	-20.9591	0	1.99236e-05
60.2016	0.00938412	-20.7758	0	8.37723e-07
60.204	0.00940321	-20.588	0	5.80953e-05
60.2062	0.00928868	-20.4162	0	3.90095e-05
60.2084	0.00947956	-20.2501	0	0.000134439
60.211	0.00940321	-20.0656	0	9.62671e-05
60.2132	0.00946047	-19.9039	0	-1.82481e-05
60.216	0.00940321	-19.7137	0	5.80953e-05
60.2184	0.00932685	-19.5552	0	9.62671e-05
60.221	0.00944138	-19.3827	0	-7.55058e-05
60.2238	0.00938412	-19.2084	0	0.000115353
60.2266	0.00942229	-19.034	0	0.000115353
60.2294	0.00947956	-18.8666	0	0.000134439
60.2326	0.00938412	-18.6789	0	3.90095e-05
60.2358	0.00942229	-18.502	0	7.71812e-05
60.2388	0.00940321	-18.3372	0	-5.64199e-05
60.2418	0.00938412	-18.1768	0	3.90095e-05
60.2448	0.00940321	-18.0158	0	-5.64199e-05
60.2482	0.00938412	-17.844	0	-9.45916e-05
60.2514	0.00938412	-17.6836	0	1.99236e-05
60.2548	0.00940321	-17.5162	0	-9.45916e-05
60.2584	0.00953682	-17.3361	0	-7.55058e-05
60.2622	0.00934594	-17.1662	0	-3.7334e-05
60.2656	0.00936503	-17.0001	0	-9.45916e-05
60.2694	0.00940321	-16.8398	0	3.90095e-05
60.273	0.00940321	-16.673	0	1.99236e-05
60.2774	0.00944138	-16.4987	0	-9.45916e-05
60.2812	0.00955591	-16.3332	0	-3.7334e-05
60.2852	0.00936503	-16.1735	0	3.90095e-05
60.2896	0.00940321	-15.9997	0	-1.82481e-05
60.2938	0.00938412	-15.8305	0	3.90095e-05
60.2984	0.00942229	-15.6548	0	1.99236e-05
60.3028	0.00940321	-15.4894	0	5.80953e-05
60.3076	0.00930776	-15.3143	0	7.71812e-05
60.3124	0.00938412	-15.1483	0	0.000115353
60.3172	0.00944138	-14.9815	0	1.99236e-05
60.3224	0.00940321	-14.8084	0	-1.82481e-05
60.3266	0.00949865	-14.6538	0	7.71812e-05
60.332	0.00944138	-14.489	0	8.37723e-07
60.337	0.00949865	-14.333	0	3.90095e-05
60.3422	0.00940321	-14.1657	0	5.80953e-05
60.3476	0.00940321	-14.0066	0	-7.55058e-05
60.3532	0.00934594	-13.8424	0	1.99236e-05
60.3588	0.00938412	-13.6795	0	-1.82481e-05
60.3646	0.00938412	-13.5153	0	9.62671e-05
60.3708	0.00953682	-13.3422	0	0.000153525
60.3768	0.00936503	-13.1812	0	-1.82481e-05
60.3832	0.00934594	-13.0208	0	8.37723e-07
60.3894	0.00946047	-12.8573	0	1.99236e-05
60.3962	0.00946047	-12.6912	0	8.37723e-07
60.4032	0.00932685	-12.5181	0	9.62671e-05
60.41	0.00928868	-12.3545	0	5.80953e-05
60.4168	0.00938412	-12.2005	0	8.37723e-07
60.4234	0.00934594	-12.0459	0	-1.82481e-05
60.4306	0.00946047	-11.8855	0	3.90095e-05
60.438	0.00938412	-11.7226	0	5.80953e-05
60.4454	0.00947956	-11.5661	0	8.37723e-07
60.4528	0.00934594	-11.4114	0	3.90095e-05
60.4604	0.00946047	-11.2568	0	1.99236e-05
60.4682	0.00946047	-11.0958	0	1.99236e-05
60.4768	0.00934594	-10.931	0	3.90095e-05
60.485	0.00944138	-10.7719	0	8.37723e-07
60.4934	0.00946047	-10.6185	0	8.37723e-07
60.5018	0.00940321	-10.4632	0	-5.64199e-05
60.5108	0.00938412	-10.3035	0	8.37723e-07
60.5198	0.00938412	-10.1469	0	5.80953e-05
60.5294	0.00946047	-9.98211	0	-9.45916e-05
60.5384	0.00932685	-9.82556	0	7.71812e-05
60.5484	0.0092505	-9.66264	0	0.000115353
60.5586	0.00942229	-9.50164	0	0.000134439
60.5688	0.00938412	-9.34445	0	1.99236e-05
60.5794	0.00944138	-9.18472	0	-9.45916e-05
60.5902	0.00930776	-9.02181	0	1.99236e-05
60.6018	0.00930776	-8.8608	0	7.71812e-05
60.6132	0.00942229	-8.70044	0	-5.64199e-05
60.6252	0.00936503	-8.54261	0	3.90095e-05
60.6374	0.00940321	-8.38288	0	-5.64199e-05
60.6506	0.00928868	-8.22188	0	0.000153525
60.6636	0.00947956	-8.05896	0	-1.82481e-05
60.6766	0.00938412	-7.9075	0	-1.82481e-05
60.6912	0.00936503	-7.75032	0	0.000115353
60.7064	0.00932685	-7.5874	0	-0.000132763
60.722	0.00936503	-7.4264	0	-1.82481e-05
60.7382	0.00940321	-7.27303	0	9.62671e-05
60.7554	0.00938412	-7.1133	0	7.71812e-05
60.773	0.00938412	-6.9523	0	-3.7334e-05
60.793	0.00947956	-6.79575	0	8.37723e-07
60.814	0.00946047	-6.63729	0	-3.7334e-05
60.8344	0.00942229	-6.48265	0	-1.82481e-05
60.8572	0.00928868	-6.32737	0	8.37723e-07
60.8814	0.00946047	-6.17082	0	-3.7334e-05
60.9086	0.00934594	-6.01172	0	8.37723e-07
60.9362	0.00949865	-5.85708	0	1.99236e-05
60.9668	0.00928868	-5.69862	0	-7.55058e-05
60.999	0.00944138	-5.54271	0	1.99236e-05
61.036	0.00944138	-5.38171	0	5.80953e-05
61.0722	0.00942229	-5.22961	0	1.99236e-05
61.112	0.00923141	-5.07433	0	0.000115353
61.1564	0.00940321	-4.91842	0	9.62671e-05
61.2026	0.00946047	-4.76569	0	-7.55058e-05
61.2524	0.00936503	-4.61041	0	-5.64199e-05
61.3072	0.00932685	-4.45322	0	3.90095e-05
61.361	0.00940321	-4.29922	0	9.62671e-05
61.444	0.00940321	-4.10612	0	7.71812e-05
61.5052	0.00942229	-3.95514	0	0.000115353
61.569	0.00936503	-3.80435	0	5.80953e-05
61.6362	0.00938412	-3.65349	0	5.80953e-05
61.7072	0.00942229	-3.50207	0	0.000134439
61.7814	0.00942229	-3.35147	0	0.000115353
61.8608	0.00944138	-3.19934	0	8.37723e-07
61.9458	0.00938412	-3.04862	0	0.000153525
62.0364	0.00936503	-2.89751	0	-1.82481e-05
62.136	0.00930776	-2.74614	0	5.80953e-05
62.2438	0.00940321	-2.59516	0	-5.64199e-05
62.3648	0.00928868	-2.44469	0	-3.7334e-05
62.5004	0.00940321	-2.2939	0	7.71812e-05
62.6554	0.00936503	-2.14292	0	5.80953e-05
62.834	0.00936503	-1.99168	0	-3.7334e-05
63.0426	0.00932685	-1.84128	0	-1.82481e-05
63.2966	0.00947956	-1.69023	0	3.90095e-05
63.6058	0.00923141	-1.53976	0	0.000134439
63.989	0.00930776	-1.38891	0	3.90095e-05
64.4802	0.00938412	-1.23837	0	0.000115353
65.1242	0.00928868	-1.08796	0	5.80953e-05
65.9956	0.00932685	-0.937236	0	7.71812e-05
67.2264	0.00946047	-0.786891	0	9.62671e-05
69.07	0.00953682	-0.635846	0	1.99236e-05
72.1334	0.00934594	-0.485183	0	1.99236e-05
78.2902	0.00946047	-0.335074	0	-1.82481e-05
95.413	0.00940321	-0.184774	0	0.000115353
125.413	0.00928868	-0.108202	0	-3.7334e-05
155.413	0.00938412	-0.0760233	0	7.71812e-05
185.413	0.00936503	-0.0572828	0	8.37723e-07
215.413	0.00946047	-0.0454682	0	1.99236e-05
245.413	0.00936503	-0.0364243	0	-9.45916e-05
275.413	0.00928868	-0.0296874	0	3.90095e-05
305.413	0.00944138	-0.0245719	0	0.000134439
335.413	0.00928868	-0.0209518	0	0.000153525
365.413	0.00942229	-0.0179445	0	7.71812e-05
395.413	0.00934594	-0.01566	0	9.62671e-05
425.413	0.00938412	-0.0139063	0	-5.64199e-05
455.413	0.00940321	-0.0122964	0	7.71812e-05
485.413	0.00934594	-0.0110733	0	7.71812e-05
515.413	0.00932685	-0.0101468	0	1.99236e-05
545.413	0.00940321	-0.00948441	0	8.37723e-07
575.413	0.00940321	-0.00862854	0	5.80953e-05
605.413	0.00936503	-0.00810801	0	1.99236e-05
635.413	0.00944138	-0.00744877	0	0.000153525
665.413	0.00940321	-0.00702497	0	8.37723e-07
695.413	0.00934594	-0.00663999	0	-5.64199e-05
725.413	0.00932685	-0.0061691	0	-7.55058e-05
755.413	0.00940321	-0.00581021	0	0.000115353
785.413	0.00930776	-0.00569376	0	9.62671e-05
815.413	0.00936503	-0.00538832	0	0.000134439
845.413	0.00934594	-0.00509751	0	5.80953e-05
875.413	0.00938412	-0.00485507	0	0.000115353
905.413	0.00936503	-0.00496006	0	-3.7334e-05
935.413	0.00938412	-0.00448432	0	1.99236e-05
965.413	0.00942229	-0.00432297	0	-5.64199e-05
995.413	0.00947956	-0.00415371	0	9.62671e-05
1025.41	0.00942229	-0.00403789	0	5.80953e-05
1055.41	0.00934594	-0.00386978	0	-7.55058e-05
1085.41	0.00932685	-0.00377382	0	7.71812e-05
1115.41	0.00926959	-0.0036536	0	9.62671e-05
1145.41	0.00940321	-0.00351523	0	8.37723e-07
1175.41	0.00940321	-0.00340526	0	1.99236e-05
1205.41	0.00938412	-0.00329122	0	0.000210782
1235.41	0.00926959	-0.00325944	0	-1.82481e-05
1265.41	0.00930776	-0.00312763	0	7.71812e-05
1295.41	0.00944138	-0.00304231	0	3.90095e-05
1325.41	0.00934594	-0.00300035	0	3.90095e-05
1355.41	0.00940321	-0.00291056	0	1.99236e-05
1385.41	0.00934594	-0.00280339	0	7.71812e-05
1415.41	0.00940321	-0.0027457	0	7.71812e-05
1445.41	0.00936503	-0.00272157	0	0.000115353
1475.41	0.00930776	-0.00259778	0	0.000172611
1505.41	0.00936503	-0.00257601	0	3.90095e-05
1535.41	0.00938412	-0.00251577	0	-5.64199e-05
1565.41	0.00928868	-0.00247839	0	9.62671e-05
1595.41	0.00938412	-0.00241121	0	-5.64199e-05
1625.41	0.00940321	-0.00235868	0	-5.64199e-05
1655.41	0.00932685	-0.00233264	0	1.99236e-05
1685.41	0.00928868	-0.00229354	0	0.000115353
1715.41	0.00940321	-0.00224992	0	8.37723e-07
1745.41	0.00940321	-0.00221878	0	-3.7334e-05
1775.41	0.00930776	-0.00214326	0	7.71812e-05
1805.41	0.00936503	-0.00215199	0	7.71812e-05
1835.41	0.00938412	-0.00207933	0	0.000210782
1860.05	0.00946047	-0.00203762	0	5.80953e-05