File: EXPERIMENTAL/DATA/Electrochemical-cycling/S-series/2024-07-04_S27_Icell_t1800_C0010_J01_deltaX-109,6mm_12mmLi_04_CP_C03.txt
time/s	Ewe/V	I/mA	error	Ece/V
1860.21	-0.0201893	-1.12413	0	-0.000486187
1860.21	-0.033579	-1.13098	0	-0.000245673
1860.21	-0.0379702	-1.13101	0	-1.06828e-05
1860.21	-0.0399553	-1.13097	0	4.65743e-05
1860.21	-0.0415968	-1.13102	0	0.000122917
1860.21	-0.0429901	-1.13102	0	4.65743e-05
1860.21	-0.0442308	-1.131	0	0.00019926
1860.21	-0.0452615	-1.13102	0	0.000180174
1860.21	-0.0472084	-1.13097	0	8.4029e-06
1860.21	-0.04822	-1.13095	0	4.65743e-05
1860.21	-0.0498424	-1.13099	0	-1.06828e-05
1860.21	-0.051503	-1.13105	0	2.74886e-05
1860.21	-0.0529346	-1.13098	0	-2.97685e-05
1860.21	-0.0545952	-1.13104	0	4.65743e-05
1860.21	-0.0559504	-1.131	0	-0.000106111
1860.21	-0.0572483	-1.13097	0	4.65743e-05
1860.21	-0.058718	-1.13099	0	8.4029e-06
1860.21	-0.0600159	-1.13102	0	-8.70256e-05
1860.21	-0.0613902	-1.13104	0	0.000103831
1860.21	-0.0625927	-1.13102	0	6.566e-05
1860.21	-0.0638143	-1.13094	0	6.566e-05
1860.21	-0.0650931	-1.13098	0	0.000103831
1860.21	-0.0661239	-1.131	0	6.566e-05
1860.21	-0.0673645	-1.13102	0	2.74886e-05
1860.21	-0.0684907	-1.13104	0	6.566e-05
1860.21	-0.0697313	-1.13104	0	0.000180174
1860.21	-0.0708575	-1.13105	0	8.47457e-05
1860.21	-0.0719073	-1.13101	0	-2.97685e-05
1860.22	-0.0729762	-1.13107	0	6.566e-05
1860.22	-0.074026	-1.13103	0	-6.79399e-05
1860.22	-0.0751903	-1.131	0	8.47457e-05
1860.22	-0.0762973	-1.13106	0	0.000122917
1860.22	-0.077977	-1.131	0	-1.06828e-05
1860.22	-0.0793704	-1.131	0	-2.97685e-05
1860.22	-0.080821	-1.13101	0	2.74886e-05
1860.22	-0.0818326	-1.13109	0	8.47457e-05
1860.22	-0.0833787	-1.13097	0	0.000103831
1860.22	-0.0848675	-1.13098	0	0.000142003
1860.22	-0.0862609	-1.13105	0	-4.88542e-05
1860.22	-0.0876733	-1.131	0	0.000103831
1860.22	-0.0891049	-1.13097	0	2.74886e-05
1860.22	-0.0904982	-1.13105	0	4.65743e-05
1860.22	-0.0918534	-1.13104	0	8.4029e-06
1860.22	-0.0931132	-1.13104	0	0.000122917
1860.22	-0.0944875	-1.13107	0	0.000103831
1860.22	-0.0955373	-1.13097	0	0.000103831
1860.23	-0.0966443	-1.13102	0	-4.88542e-05
1860.23	-0.0980377	-1.13098	0	2.74886e-05
1860.23	-0.0992975	-1.13105	0	8.4029e-06
1860.23	-0.100653	-1.13102	0	0.00019926
1860.23	-0.101779	-1.13095	0	8.4029e-06
1860.23	-0.102981	-1.13102	0	0.000142003
1860.23	-0.10426	-1.13095	0	8.4029e-06
1860.23	-0.105539	-1.13102	0	8.4029e-06
1860.23	-0.106684	-1.13096	0	0.000142003
1860.23	-0.107887	-1.13103	0	2.74886e-05
1860.23	-0.109051	-1.13097	0	0.000161088
1860.23	-0.110158	-1.13104	0	-1.06828e-05
1860.23	-0.111322	-1.13101	0	2.74886e-05
1860.23	-0.112449	-1.13099	0	8.47457e-05
1860.23	-0.113575	-1.13104	0	8.47457e-05
1860.23	-0.114605	-1.13102	0	8.47457e-05
1860.23	-0.115884	-1.13098	0	0.000142003
1860.24	-0.11722	-1.13104	0	4.65743e-05
1860.24	-0.118308	-1.13098	0	-1.06828e-05
1860.24	-0.119473	-1.13102	0	8.47457e-05
1860.24	-0.120713	-1.13104	0	-6.79399e-05
1860.24	-0.121801	-1.13099	0	-2.97685e-05
1860.24	-0.122813	-1.13107	0	6.566e-05
1860.24	-0.123958	-1.13102	0	8.4029e-06
1860.24	-0.12518	-1.131	0	2.74886e-05
1860.24	-0.126516	-1.13105	0	6.566e-05
1860.24	-0.127871	-1.13102	0	-1.06828e-05
1860.24	-0.128921	-1.131	0	4.65743e-05
1860.24	-0.130009	-1.131	0	-1.06828e-05
1860.24	-0.131059	-1.13102	0	4.65743e-05
1860.24	-0.132223	-1.13097	0	6.566e-05
1860.25	-0.133521	-1.13104	0	6.566e-05
1860.25	-0.134762	-1.13097	0	8.4029e-06
1860.25	-0.135907	-1.13101	0	0.000122917
1860.25	-0.137071	-1.131	0	-2.97685e-05
1860.25	-0.138254	-1.13102	0	8.4029e-06
1860.25	-0.1394	-1.13098	0	-1.06828e-05
1860.25	-0.140526	-1.13098	0	2.74886e-05
1860.25	-0.141652	-1.13103	0	8.47457e-05
1860.25	-0.142816	-1.13102	0	0.000180174
1860.25	-0.144191	-1.13103	0	0.000103831
1860.25	-0.145298	-1.13107	0	2.74886e-05
1860.25	-0.146328	-1.13102	0	0.000103831
1860.26	-0.147359	-1.13101	0	6.566e-05
1860.26	-0.148638	-1.13102	0	-1.06828e-05
1860.26	-0.149764	-1.13102	0	0.000103831
1860.26	-0.150776	-1.13103	0	2.74886e-05
1860.26	-0.151864	-1.13095	0	-0.000125197
1860.26	-0.152894	-1.13104	0	2.74886e-05
1860.26	-0.154173	-1.13098	0	8.4029e-06
1860.26	-0.155414	-1.13103	0	4.65743e-05
1860.26	-0.156464	-1.131	0	-1.06828e-05
1860.26	-0.157609	-1.13104	0	8.47457e-05
1860.26	-0.158697	-1.13105	0	8.47457e-05
1860.27	-0.159861	-1.13101	0	4.65743e-05
1860.27	-0.161006	-1.13101	0	-1.06828e-05
1860.27	-0.162285	-1.13102	0	0.000103831
1860.27	-0.163335	-1.13104	0	-2.97685e-05
1860.27	-0.164614	-1.13102	0	8.47457e-05
1860.27	-0.165874	-1.131	0	0.000122917
1860.27	-0.166962	-1.13108	0	0.000161088
1860.27	-0.168126	-1.13101	0	6.566e-05
1860.27	-0.169348	-1.13102	0	0.000122917
1860.28	-0.170588	-1.13104	0	-8.70256e-05
1860.28	-0.171657	-1.13106	0	4.65743e-05
1860.28	-0.172879	-1.13099	0	0.000103831
1860.28	-0.173909	-1.13101	0	4.65743e-05
1860.28	-0.17494	-1.131	0	8.4029e-06
1860.28	-0.176028	-1.13105	0	0.000256517
1860.28	-0.177154	-1.131	0	2.74886e-05
1860.29	-0.178185	-1.13103	0	0.000103831
1860.29	-0.179387	-1.13104	0	0.000122917
1860.29	-0.180571	-1.13098	0	4.65743e-05
1860.29	-0.181773	-1.13097	0	6.566e-05
1860.29	-0.1829	-1.13104	0	6.566e-05
1860.29	-0.184045	-1.13101	0	8.4029e-06
1860.3	-0.185228	-1.13096	0	0.000122917
1860.3	-0.18624	-1.13104	0	0.000122917
1860.3	-0.187404	-1.131	0	0.000142003
1860.3	-0.18853	-1.13104	0	-1.06828e-05
1860.3	-0.189542	-1.13106	0	8.47457e-05
1860.31	-0.190668	-1.13092	0	-4.88542e-05
1860.31	-0.19168	-1.13102	0	0.000161088
1860.31	-0.192749	-1.13107	0	4.65743e-05
1860.32	-0.193798	-1.13104	0	8.47457e-05
1860.33	-0.19481	-1.13107	0	-0.000125197
1860.35	-0.193703	-1.131	0	0.000103831
1860.36	-0.192672	-1.131	0	0.000122917
1860.36	-0.191622	-1.13097	0	-6.79399e-05
1860.37	-0.190515	-1.13095	0	0.000256517
1860.37	-0.189351	-1.13099	0	4.65743e-05
1860.37	-0.188206	-1.13101	0	-2.97685e-05
1860.38	-0.187099	-1.13095	0	-4.88542e-05
1860.38	-0.185915	-1.13097	0	-1.06828e-05
1860.38	-0.184885	-1.131	0	0.000103831
1860.39	-0.183873	-1.13109	0	2.74886e-05
1860.39	-0.182785	-1.13102	0	0.000103831
1860.39	-0.181773	-1.13097	0	-8.70256e-05
1860.4	-0.180743	-1.13095	0	0.000103831
1860.4	-0.179712	-1.13098	0	0.000103831
1860.4	-0.178605	-1.13105	0	6.566e-05
1860.41	-0.177574	-1.13102	0	-2.97685e-05
1860.41	-0.176429	-1.131	0	-2.97685e-05
1860.41	-0.175417	-1.13099	0	-1.06828e-05
1860.42	-0.17431	-1.13103	0	0.000122917
1860.42	-0.17326	-1.13095	0	2.74886e-05
1860.43	-0.172249	-1.13102	0	2.74886e-05
1860.43	-0.171161	-1.13095	0	8.47457e-05
1860.43	-0.170149	-1.13105	0	0.000122917
1860.44	-0.169099	-1.13098	0	2.74886e-05
1860.44	-0.16805	-1.13108	0	6.566e-05
1860.45	-0.166962	-1.131	0	0.000122917
1860.46	-0.165912	-1.131	0	4.65743e-05
1860.46	-0.164881	-1.13097	0	8.4029e-06
1860.47	-0.163774	-1.13102	0	0.000122917
1860.48	-0.162667	-1.13099	0	0.000180174
1860.48	-0.161655	-1.13095	0	6.566e-05
1860.49	-0.160625	-1.13097	0	4.65743e-05
1860.5	-0.159594	-1.13105	0	0.000103831
1860.51	-0.158563	-1.13102	0	0.000103831
1860.52	-0.157552	-1.13099	0	-2.97685e-05
1860.53	-0.156521	-1.13108	0	0.000103831
1860.54	-0.155471	-1.131	0	-1.06828e-05
1860.56	-0.15444	-1.131	0	0.000237431
1860.57	-0.153391	-1.13107	0	4.65743e-05
1860.59	-0.15236	-1.131	0	8.47457e-05
1860.61	-0.151272	-1.13095	0	2.74886e-05
1860.63	-0.150241	-1.13102	0	6.566e-05
1860.66	-0.149191	-1.13102	0	0.000256517
1860.69	-0.14818	-1.13107	0	-0.000106111
1860.72	-0.147149	-1.131	0	-2.97685e-05
1860.77	-0.146138	-1.13099	0	0.000103831
1860.81	-0.145126	-1.13095	0	4.65743e-05
1860.87	-0.144114	-1.13098	0	8.47457e-05
1860.94	-0.143103	-1.13102	0	0.000122917
1861.02	-0.142091	-1.13105	0	6.566e-05
1861.12	-0.14106	-1.13103	0	4.65743e-05
1861.24	-0.140049	-1.13105	0	4.65743e-05
1861.39	-0.139037	-1.13111	0	6.566e-05
1861.56	-0.138025	-1.13101	0	6.566e-05
1861.75	-0.136995	-1.13099	0	0.000142003
1862.01	-0.135945	-1.13097	0	-2.97685e-05
1862.3	-0.134895	-1.13101	0	8.4029e-06
1862.64	-0.133864	-1.13105	0	2.74886e-05
1863.01	-0.132815	-1.13103	0	8.47457e-05
1863.5	-0.131765	-1.13102	0	0.000103831
1864.02	-0.130715	-1.13098	0	-6.79399e-05
1864.66	-0.129703	-1.13109	0	6.566e-05
1865.32	-0.128692	-1.131	0	0.000161088
1866.14	-0.127661	-1.13104	0	2.74886e-05
1867.11	-0.126649	-1.131	0	4.65743e-05
1868.17	-0.125638	-1.131	0	8.47457e-05
1869.29	-0.124626	-1.13101	0	0.000122917
1870.8	-0.123615	-1.13098	0	8.47457e-05
1872.49	-0.122603	-1.1311	0	8.4029e-06
1874.58	-0.121572	-1.13101	0	6.566e-05
1877.28	-0.120561	-1.13105	0	0.000161088
1880.93	-0.119549	-1.13102	0	-2.97685e-05
1886.3	-0.118518	-1.1311	0	6.566e-05
1896.21	-0.117774	-1.131	0	6.566e-05