File: EXPERIMENTAL/DATA/Electrochemical-cycling/S-series/2024-07-04_S27_Icell_t1800_C0010_J01_deltaX-109,6mm_12mmLi_02_MB_C03.txt
time/s	Ewe/V	I/mA	error	Ece/V
60.053	2.91403	-0.0250202	0	-0.000486187
60.174	0.00948462	-27.4441	0	2.74886e-05
60.175	0.00940827	-27.211	0	6.566e-05
60.1758	0.00946554	-27.0149	0	-1.06828e-05
60.177	0.00946554	-26.7513	0	4.65743e-05
60.178	0.00940827	-26.5291	0	-8.70256e-05
60.1792	0.00931284	-26.2726	0	6.566e-05
60.1804	0.00938919	-26.0274	0	6.566e-05
60.1816	0.0095228	-25.7829	0	2.74886e-05
60.1828	0.00946554	-25.5346	0	2.74886e-05
60.184	0.00933192	-25.3041	0	6.566e-05
60.1852	0.00940827	-25.0781	0	-4.88542e-05
60.1864	0.00950371	-24.8476	0	-2.97685e-05
60.1876	0.00938919	-24.6337	0	8.4029e-06
60.1888	0.00942736	-24.4268	0	-0.000106111
60.19	0.00940827	-24.2122	0	-0.000106111
60.1912	0.00948462	-24.011	0	-2.97685e-05
60.1924	0.00940827	-23.8143	0	6.566e-05
60.1936	0.00946554	-23.6137	0	0.000142003
60.1948	0.00940827	-23.4214	0	0.000180174
60.196	0.00940827	-23.2323	0	8.4029e-06
60.1972	0.00938919	-23.0566	0	-4.88542e-05
60.1984	0.0093701	-22.8688	0	-4.88542e-05
60.1996	0.00940827	-22.6899	0	-2.97685e-05
60.2008	0.0095228	-22.5193	0	0.000103831
60.202	0.00944645	-22.3493	0	-6.79399e-05
60.2032	0.00942736	-22.185	0	8.47457e-05
60.2048	0.00935101	-21.9609	0	0.000103831
60.2062	0.00942736	-21.7718	0	0.000142003
60.2074	0.0093701	-21.6043	0	-1.06828e-05
60.209	0.00950371	-21.3999	0	2.74886e-05
60.2106	0.00942736	-21.1975	0	4.65743e-05
60.2122	0.00954188	-21.0058	0	8.4029e-06
60.2138	0.0093701	-20.811	0	0.000122917
60.2156	0.00929375	-20.6022	0	-1.06828e-05
60.217	0.00948462	-20.4354	0	-1.06828e-05
60.2188	0.00940827	-20.2393	0	-6.79399e-05
60.2206	0.00942736	-20.0317	0	-6.79399e-05
60.2224	0.00942736	-19.8375	0	8.4029e-06
60.2242	0.00938919	-19.6529	0	6.566e-05
60.226	0.00946554	-19.4542	0	4.65743e-05
60.2278	0.00944645	-19.2734	0	0.00019926
60.2296	0.00944645	-19.0907	0	-0.000106111
60.2314	0.00940827	-18.9118	0	6.566e-05
60.2332	0.00935101	-18.7411	0	2.74886e-05
60.2352	0.00954188	-18.5469	0	0.00019926
60.237	0.0095228	-18.3846	0	-8.70256e-05
60.239	0.00948462	-18.1993	0	-2.97685e-05
60.241	0.00950371	-18.0223	0	2.74886e-05
60.2428	0.00948462	-17.8587	0	8.4029e-06
60.245	0.00942736	-17.6778	0	-2.97685e-05
60.2468	0.00938919	-17.5212	0	2.74886e-05
60.2488	0.0093701	-17.3525	0	8.47457e-05
60.251	0.00946554	-17.1723	0	0.000142003
60.2532	0.00938919	-16.9991	0	-4.88542e-05
60.2552	0.00940827	-16.8368	0	0.000103831
60.2574	0.0093701	-16.6693	0	0.000103831
60.2598	0.00948462	-16.4936	0	-2.97685e-05
60.2622	0.00944645	-16.3153	0	-2.97685e-05
60.2646	0.00954188	-16.1396	0	-2.97685e-05
60.267	0.00940827	-15.9791	0	-8.70256e-05
60.2694	0.00942736	-15.8041	0	-8.70256e-05
60.2718	0.0095228	-15.6462	0	-2.97685e-05
60.2742	0.00944645	-15.4832	0	4.65743e-05
60.2768	0.00938919	-15.3068	0	-1.06828e-05
60.2794	0.0093701	-15.1419	0	-1.06828e-05
60.2822	0.0095228	-14.9706	0	8.4029e-06
60.2848	0.00948462	-14.8083	0	-1.06828e-05
60.2874	0.00942736	-14.6504	0	8.47457e-05
60.2906	0.00935101	-14.4632	0	4.65743e-05
60.2934	0.00944645	-14.3015	0	-0.000144283
60.2964	0.00948462	-14.1366	0	-2.97685e-05
60.2996	0.00946554	-13.9596	0	4.65743e-05
60.3024	0.00946554	-13.801	0	4.65743e-05
60.3058	0.00950371	-13.6272	0	-1.06828e-05
60.3092	0.00959915	-13.4515	0	0.000103831
60.3128	0.00946554	-13.2668	0	2.74886e-05
60.3164	0.00950371	-13.0988	0	0.000122917
60.32	0.0093701	-12.9313	0	-2.97685e-05
60.3236	0.0095228	-12.7683	0	6.566e-05
60.3272	0.00948462	-12.6053	0	0.000142003
60.331	0.00950371	-12.4449	0	-2.97685e-05
60.3346	0.00940827	-12.2857	0	0.000161088
60.3388	0.00948462	-12.1087	0	8.4029e-06
60.343	0.00946554	-11.9425	0	0.000142003
60.3472	0.00948462	-11.7789	0	-1.06828e-05
60.3516	0.00938919	-11.6172	0	-4.88542e-05
60.3562	0.0095228	-11.4523	0	0.000122917
60.3606	0.00942736	-11.2855	0	4.65743e-05
60.3656	0.0093701	-11.1256	0	-2.97685e-05
60.3704	0.00944645	-10.9595	0	2.74886e-05
60.3756	0.00946554	-10.7997	0	-8.70256e-05
60.3804	0.00938919	-10.6405	0	2.74886e-05
60.3862	0.00946554	-10.4705	0	-2.97685e-05
60.3922	0.0093701	-10.296	0	-2.97685e-05
60.3984	0.00946554	-10.1292	0	0.000142003
60.4044	0.00944645	-9.97259	0	-1.06828e-05
60.4106	0.00935101	-9.80769	0	6.566e-05
60.417	0.00933192	-9.64724	0	2.74886e-05
60.424	0.0095228	-9.48489	0	-1.06828e-05
60.4312	0.00933192	-9.3238	0	8.4029e-06
60.4388	0.00948462	-9.16208	0	0.000180174
60.4464	0.00948462	-9.00418	0	2.74886e-05
60.4544	0.00942736	-8.83992	0	-1.06828e-05
60.4634	0.00944645	-8.67056	0	-8.70256e-05
60.4724	0.00950371	-8.51138	0	-2.97685e-05
60.481	0.0093701	-8.35667	0	-2.97685e-05
60.491	0.0093701	-8.19813	0	2.74886e-05
60.5008	0.00935101	-8.0415	0	-1.06828e-05
60.511	0.00933192	-7.88742	0	2.74886e-05
60.5224	0.00946554	-7.72443	0	0.000103831
60.5344	0.00946554	-7.56781	0	-2.97685e-05
60.5468	0.00956097	-7.41182	0	-4.88542e-05
60.5596	0.00948462	-7.25583	0	8.4029e-06
60.5728	0.0093701	-7.09665	0	0.000142003
60.5874	0.00940827	-6.93493	0	-6.79399e-05
60.6032	0.00946554	-6.78085	0	-4.88542e-05
60.6188	0.00946554	-6.62805	0	8.4029e-06
60.6354	0.00942736	-6.47333	0	8.4029e-06
60.6532	0.0093701	-6.31034	0	8.47457e-05
60.673	0.00944645	-6.15371	0	6.566e-05
60.6938	0.00938919	-5.98881	0	4.65743e-05
60.715	0.0095228	-5.83537	0	6.566e-05
60.739	0.00946554	-5.66792	0	-0.000182454
60.7636	0.00950371	-5.51511	0	6.566e-05
60.789	0.00946554	-5.35912	0	2.74886e-05
60.8174	0.00940827	-5.20186	0	8.47457e-05
60.846	0.00938919	-5.04268	0	-6.79399e-05
60.879	0.0093701	-4.88096	0	-1.06828e-05
60.913	0.00946554	-4.72816	0	0.000161088
60.949	0.00944645	-4.57344	0	4.65743e-05
61.018	0.00946554	-4.31545	0	-2.97685e-05
61.0612	0.00956097	-4.16358	0	6.566e-05
61.1078	0.00946554	-4.01273	0	0.000122917
61.1584	0.00933192	-3.86131	0	0.000122917
61.2132	0.00938919	-3.71052	0	8.4029e-06
61.2738	0.0093701	-3.55884	0	8.4029e-06
61.3396	0.00940827	-3.40787	0	-0.000106111
61.4118	0.00948462	-3.25765	0	8.47457e-05
61.4928	0.00954188	-3.10521	0	6.566e-05
61.5824	0.00950371	-2.95461	0	-6.79399e-05
61.6826	0.00942736	-2.80325	0	6.566e-05
61.796	0.00954188	-2.65285	0	6.566e-05
61.924	0.00946554	-2.50168	0	-2.97685e-05
62.0704	0.00935101	-2.35102	0	4.65743e-05
62.24	0.00944645	-2.20036	0	2.74886e-05
62.4388	0.00942736	-2.05002	0	-4.88542e-05
62.6722	0.00940827	-1.89961	0	8.47457e-05
62.9518	0.00940827	-1.74901	0	-1.06828e-05
63.2912	0.00942736	-1.59835	0	-4.88542e-05
63.7122	0.00938919	-1.44814	0	-1.06828e-05
64.2496	0.0093701	-1.2978	0	8.47457e-05
64.9508	0.00946554	-1.14726	0	2.74886e-05
65.8898	0.00940827	-0.99635	0	-1.06828e-05
67.2196	0.0093701	-0.846135	0	0.000142003
69.243	0.00935101	-0.695347	0	6.566e-05
72.626	0.00948462	-0.545069	0	-1.06828e-05
79.3596	0.00940827	-0.394991	0	2.74886e-05
96.7842	0.00950371	-0.244897	0	-4.88542e-05
126.784	0.00935101	-0.157624	0	2.74886e-05
156.784	0.00942736	-0.117981	0	8.4029e-06
186.784	0.00946554	-0.0936125	0	8.47457e-05
216.784	0.00938919	-0.0789874	0	8.4029e-06
246.784	0.00946554	-0.0677227	0	-2.97685e-05
276.784	0.00942736	-0.0591692	0	0.000103831
306.784	0.00935101	-0.0524549	0	8.4029e-06
336.784	0.00944645	-0.0466889	0	0.000161088
366.784	0.00940827	-0.0423125	0	6.566e-05
396.784	0.00929375	-0.0386967	0	6.566e-05
426.784	0.00935101	-0.0355358	0	-0.000125197
456.784	0.00938919	-0.0331033	0	-1.06828e-05
486.784	0.00942736	-0.0309133	0	6.566e-05
516.784	0.0093701	-0.0291076	0	2.74886e-05
546.784	0.00935101	-0.0275679	0	-6.79399e-05
576.784	0.00948462	-0.0262241	0	-6.79399e-05
606.784	0.00950371	-0.0250636	0	4.65743e-05
636.784	0.00944645	-0.0239743	0	4.65743e-05
666.784	0.00948462	-0.0230186	0	-2.97685e-05
696.784	0.00944645	-0.022285	0	-8.70256e-05
726.784	0.00942736	-0.0215222	0	6.566e-05
756.784	0.00944645	-0.020912	0	4.65743e-05
786.784	0.00938919	-0.0202745	0	8.4029e-06
816.784	0.00935101	-0.0194753	0	-1.06828e-05
846.784	0.00940827	-0.0191877	0	-1.06828e-05
876.784	0.00940827	-0.0185184	0	-1.06828e-05
906.784	0.00940827	-0.0182053	0	4.65743e-05
936.784	0.00933192	-0.0177447	0	2.74886e-05
966.784	0.00938919	-0.0173254	0	2.74886e-05
996.784	0.00944645	-0.0170085	0	-1.06828e-05
1026.78	0.00944645	-0.0166631	0	8.47457e-05
1056.78	0.00944645	-0.0163716	0	-4.88542e-05
1086.78	0.00944645	-0.0160503	0	8.4029e-06
1116.78	0.0093701	-0.0157188	0	-4.88542e-05
1146.78	0.00940827	-0.0155598	0	-2.97685e-05
1176.78	0.00944645	-0.0153116	0	-0.000106111
1206.78	0.00940827	-0.0150069	0	-1.06828e-05
1236.78	0.00933192	-0.0147282	0	6.566e-05
1266.78	0.00944645	-0.0146328	0	2.74886e-05
1296.78	0.00942736	-0.0144406	0	0.000142003
1326.78	0.00940827	-0.0141371	0	4.65743e-05
1356.78	0.00944645	-0.0140207	0	0.000103831
1386.78	0.00944645	-0.01384	0	4.65743e-05
1416.78	0.00940827	-0.0136376	0	0.000103831
1446.78	0.00933192	-0.0134519	0	-4.88542e-05
1476.78	0.00935101	-0.0133062	0	8.4029e-06
1506.78	0.00940827	-0.0131197	0	8.4029e-06
1536.78	0.00948462	-0.0131713	0	0.000122917
1566.78	0.00938919	-0.0130154	0	6.566e-05
1596.78	0.00938919	-0.0128958	0	2.74886e-05
1626.78	0.00931284	-0.0127221	0	0.000122917
1656.78	0.0093701	-0.0126826	0	-6.79399e-05
1686.78	0.00950371	-0.0124892	0	-6.79399e-05
1716.78	0.00946554	-0.01232	0	2.74886e-05
1746.78	0.00938919	-0.0122506	0	-1.06828e-05
1776.78	0.00938919	-0.0121233	0	2.74886e-05
1806.78	0.00948462	-0.0119535	0	-2.97685e-05
1836.78	0.00946554	-0.011886	0	2.74886e-05
1860.05	0.00942736	-0.0117989	0	0.000161088