File: EXPERIMENTAL/DATA/Electrochemical-cycling/S-series/2024-06-27_S18_Icell_t1800_C0010_J01_deltaX-110,1mm_02_MB_C05.txt
time/s	Ewe/V	I/mA	error	Ece/V
60.053	2.80555	-0.0250213	0	-0.000717146
60.1736	0.00916716	-6.00087	0	-0.000160373
60.1748	0.00937715	-5.87608	0	-6.49344e-05
60.176	0.00933897	-5.73411	0	1.14163e-05
60.1772	0.00924352	-5.61443	0	3.05039e-05
60.1786	0.00931988	-5.47755	0	-6.49344e-05
60.1798	0.00931988	-5.36295	0	-6.49344e-05
60.181	0.00930079	-5.25345	0	1.14163e-05
60.1824	0.00939624	-5.13567	0	6.86792e-05
60.1838	0.00924352	-5.02363	0	-7.67139e-06
60.1854	0.00930079	-4.90076	0	-0.00010311
60.187	0.0092817	-4.77534	0	-0.000122197
60.1888	0.00926261	-4.66456	0	-4.58467e-05
60.1904	0.00930079	-4.55315	0	-8.4022e-05
60.1924	0.00930079	-4.43283	0	-4.58467e-05
60.1944	0.00930079	-4.32078	0	6.86792e-05
60.1964	0.00941533	-4.21191	0	-6.49344e-05
60.1986	0.00931988	-4.09732	0	-2.6759e-05
60.201	0.00922443	-3.98463	0	-0.000122197
60.2032	0.00924352	-3.87895	0	-6.49344e-05
60.2058	0.00930079	-3.76372	0	-0.000122197
60.209	0.00926261	-3.64531	0	-8.4022e-05
60.212	0.00939624	-3.52562	0	-4.58467e-05
60.2156	0.00935806	-3.40402	0	3.05039e-05
60.2192	0.00918625	-3.29006	0	-0.000122197
60.2226	0.00926261	-3.18565	0	-0.000141285
60.2262	0.00930079	-3.08252	0	-0.000141285
60.2306	0.00926261	-2.96856	0	-7.67139e-06
60.235	0.00933897	-2.86033	0	-7.67139e-06
60.2394	0.00933897	-2.75656	0	-0.000160373
60.2442	0.00924352	-2.65597	0	1.14163e-05
60.2494	0.00924352	-2.55156	0	-6.49344e-05
60.2552	0.00922443	-2.44716	0	-7.67139e-06
60.261	0.00941533	-2.34402	0	-0.000122197
60.2682	0.00933897	-2.23516	0	-0.00010311
60.273	0.0092817	-2.24283	0	1.14163e-05
60.3084	0.00930079	-1.79283	0	-6.49344e-05
60.32	0.00933897	-1.69005	0	-2.6759e-05
60.3328	0.00933897	-1.58917	0	-0.000141285
60.3478	0.00926261	-1.4867	0	-4.58467e-05
60.3642	0.0092817	-1.38626	0	3.05039e-05
60.3838	0.00922443	-1.28519	0	1.14163e-05
60.4066	0.00926261	-1.18419	0	3.05039e-05
60.4338	0.00939624	-1.08344	0	4.95916e-05
60.4664	0.00930079	-0.982877	0	4.95916e-05
60.5072	0.00935806	-0.882125	0	-7.67139e-06
60.5592	0.00922443	-0.781055	0	-8.4022e-05
60.6272	0.00926261	-0.680113	0	6.86792e-05
60.7198	0.00931988	-0.579298	0	-2.6759e-05
60.8528	0.00935806	-0.477782	0	1.14163e-05
61.0668	0.00931988	-0.377679	0	0.000125942
61.4274	0.00926261	-0.277537	0	-2.6759e-05
62.1914	0.00926261	-0.177394	0	-0.000122197
64.841	0.00920534	-0.0773528	0	-2.6759e-05
83.2832	0.00931988	-0.0152891	0	-6.49344e-05
103.283	0.0092817	-0.0079016	0	-7.67139e-06
123.283	0.0092817	-0.00527683	0	-0.00010311
143.283	0.00920534	-0.0039708	0	-6.49344e-05
163.283	0.00922443	-0.00320149	0	1.14163e-05
183.283	0.0092817	-0.00268463	0	0.000106855
203.283	0.0092817	-0.00235637	0	1.14163e-05
223.283	0.00926261	-0.00203492	0	1.14163e-05
243.283	0.00931988	-0.00182168	0	4.95916e-05
263.283	0.00941533	-0.00164466	0	-7.67139e-06
283.283	0.00916716	-0.00149183	0	-7.67139e-06
303.283	0.00930079	-0.00134759	0	-2.6759e-05
323.283	0.00920534	-0.00126535	0	8.77669e-05
343.283	0.00926261	-0.00124053	0	-2.6759e-05
363.283	0.0092817	-0.0011355	0	-7.67139e-06
383.283	0.00926261	-0.00107879	0	-0.000141285
403.283	0.00920534	-0.00102831	0	8.77669e-05
423.283	0.0092817	-0.000971339	0	6.86792e-05
443.283	0.00933897	-0.000881334	0	-7.67139e-06
463.283	0.0092817	-0.000841041	0	-6.49344e-05
483.283	0.00931988	-0.000795656	0	4.95916e-05
503.283	0.00933897	-0.00081087	0	-4.58467e-05
523.283	0.00924352	-0.000752882	0	-2.6759e-05
543.283	0.00935806	-0.000734995	0	4.95916e-05
563.283	0.00922443	-0.000730603	0	-7.67139e-06
583.283	0.00930079	-0.00066364	0	-7.67139e-06
603.283	0.0092817	-0.000676116	0	-8.4022e-05
623.283	0.00933897	-0.000600814	0	6.86792e-05
643.283	0.00922443	-0.000617173	0	-8.4022e-05
663.283	0.00926261	-0.000572998	0	-7.67139e-06
683.283	0.00912898	-0.000605334	0	-8.4022e-05
703.283	0.00931988	-0.000551738	0	-0.000141285
723.283	0.00935806	-0.000521566	0	1.14163e-05
743.283	0.00931988	-0.000512336	0	-2.6759e-05
763.283	0.00933897	-0.000506289	0	4.95916e-05
783.283	0.00931988	-0.000487257	0	-2.6759e-05
803.283	0.00933897	-0.000501897	0	-4.58467e-05
823.283	0.00935806	-0.000492986	0	-4.58467e-05
843.283	0.00922443	-0.000481656	0	6.86792e-05
863.283	0.00933897	-0.000469498	0	-0.00010311
883.283	0.00924352	-0.000441872	0	0.000125942
903.283	0.00922443	-0.000401516	0	8.77669e-05
923.283	0.00933897	-0.000432388	0	4.95916e-05
943.283	0.00930079	-0.000394769	0	1.14163e-05
963.283	0.00931988	-0.000383757	0	0.000164117
983.283	0.00926261	-0.000375227	0	-8.4022e-05
1003.28	0.0092817	-0.000362369	0	-0.000122197
1023.28	0.00930079	-0.000365679	0	6.86792e-05
1043.28	0.00922443	-0.000408072	0	-4.58467e-05
1063.28	0.00943442	-0.000361924	0	4.95916e-05
1083.28	0.00926261	-0.000403171	0	-7.67139e-06
1103.28	0.00926261	-0.000397251	0	-6.49344e-05
1123.28	0.00930079	-0.000343019	0	-4.58467e-05
1143.28	0.00914807	-0.000351676	0	-2.6759e-05
1163.28	0.0092817	-0.000316412	0	-0.000217636
1183.28	0.00931988	-0.00032857	0	4.95916e-05
1203.28	0.00918625	-0.000333471	0	-2.6759e-05
1223.28	0.00931988	-0.000325069	0	-6.49344e-05
1243.28	0.00926261	-0.000324305	0	1.14163e-05
1263.28	0.00922443	-0.000340664	0	-2.6759e-05
1283.28	0.00931988	-0.000296107	0	3.05039e-05
1303.28	0.00933897	-0.000305973	0	-8.4022e-05
1323.28	0.0092817	-0.000301072	0	-4.58467e-05
1343.28	0.00924352	-0.00030018	0	-0.000122197
1363.28	0.00930079	-0.000334171	0	4.95916e-05
1383.28	0.00916716	-0.000282739	0	8.77669e-05
1403.28	0.00926261	-0.000279939	0	-0.00010311
1423.28	0.00933897	-0.000316985	0	-0.000122197
1443.28	0.00933897	-0.000267781	0	-2.6759e-05
1463.28	0.00920534	-0.000258551	0	-2.6759e-05
1483.28	0.00924352	-0.000258551	0	-0.000122197
1503.28	0.00922443	-0.000274528	0	-0.000141285
1523.28	0.00926261	-0.000250149	0	-6.49344e-05
1543.28	0.00930079	-0.000274337	0	1.14163e-05
1563.28	0.00931988	-0.000251613	0	3.05039e-05
1583.28	0.00933897	-0.000236145	0	-0.000122197
1603.28	0.00920534	-0.000343719	0	-2.6759e-05
1623.28	0.0092817	-0.000278666	0	3.05039e-05
1643.28	0.00914807	-0.000267017	0	-7.67139e-06
1663.28	0.0092817	-0.000285413	0	0.000106855
1683.28	0.00926261	-0.000229271	0	-0.000141285
1703.28	0.0092817	-0.000265871	0	-7.67139e-06
1723.28	0.00930079	-0.000268672	0	-7.67139e-06
1743.28	0.0092817	-0.000301008	0	3.05039e-05
1763.28	0.00922443	-0.000258869	0	-0.000198548
1783.28	0.00931988	-0.000202664	0	-2.6759e-05
1803.28	0.00912898	-0.000222905	0	-7.67139e-06
1823.28	0.00930079	-0.000265808	0	-7.67139e-06
1843.28	0.00926261	-0.000237546	0	-0.00010311
1860.05	0.00926261	-0.000185859	0	-4.58467e-05