File: EXPERIMENTAL/DATA/Electrochemical-cycling/S-series/2024-07-02_S23_Icell_t0000_C0050_J01_deltaX-109,9mm_LFP_02_CP_C06.txt
time/s	Ewe/V	I/mA	error
60.0524	-0.296449	-0.619449	0
60.0542	-0.474285	-0.780932	0
60.056	-0.564838	-0.782555	0
60.0578	-0.621331	-0.783357	0
60.0596	-0.660927	-0.783822	0
60.0614	-0.690501	-0.784057	0
60.0632	-0.713526	-0.784197	0
60.065	-0.732465	-0.784363	0
60.0668	-0.748292	-0.784483	0
60.0686	-0.762115	-0.784598	0
60.0704	-0.774295	-0.784585	0
60.0722	-0.785368	-0.784681	0
60.0742	-0.796728	-0.784643	0
60.0766	-0.809214	-0.7847	0
60.0798	-0.824698	-0.784732	0
60.0832	-0.840105	-0.784757	0
60.0868	-0.855455	-0.784738	0
60.0904	-0.870136	-0.784821	0
60.094	-0.884494	-0.784846	0
60.0976	-0.898259	-0.784802	0
60.1012	-0.911852	-0.784802	0
60.1048	-0.925026	-0.784821	0
60.1084	-0.937894	-0.784891	0
60.112	-0.950227	-0.784853	0
60.1156	-0.962484	-0.784802	0
60.1192	-0.974436	-0.784846	0
60.1228	-0.986101	-0.784872	0
60.1264	-0.997212	-0.784865	0
60.13	-1.00851	-0.784891	0
60.1336	-1.01934	-0.784891	0
60.1372	-1.03001	-0.784872	0
60.141	-1.04097	-0.784827	0
60.1448	-1.05164	-0.784865	0
60.1484	-1.06172	-0.784859	0
60.1522	-1.07224	-0.784865	0
60.156	-1.08261	-0.784872	0
60.1606	-1.09485	-0.784846	0
60.1648	-1.10581	-0.784853	0
60.1696	-1.11803	-0.784878	0
60.1736	-1.12822	-0.784948	0
60.1786	-1.14042	-0.784853	0
60.1834	-1.15205	-0.784865	0
60.188	-1.16304	-0.784897	0
60.1934	-1.17549	-0.784903	0
60.1986	-1.18741	-0.784897	0
60.2038	-1.19907	-0.784821	0
60.209	-1.21039	-0.784891	0
60.2144	-1.22208	-0.78484	0
60.2198	-1.23347	-0.78484	0
60.2252	-1.24472	-0.784961	0
60.2306	-1.25549	-0.784891	0
60.236	-1.26631	-0.784923	0
60.2416	-1.2771	-0.784891	0
60.247	-1.28733	-0.78491	0
60.2526	-1.29768	-0.784935	0
60.2584	-1.30812	-0.784872	0
60.2644	-1.31861	-0.785037	0
60.2706	-1.32899	-0.784929	0
60.277	-1.33972	-0.784884	0
60.2838	-1.35051	-0.784916	0
60.2906	-1.36124	-0.784986	0
60.2978	-1.37218	-0.784942	0
60.305	-1.38275	-0.784961	0
60.3122	-1.39295	-0.784948	0
60.3194	-1.40305	-0.784923	0
60.327	-1.41364	-0.784929	0
60.3344	-1.42352	-0.784954	0
60.3416	-1.43304	-0.784923	0
60.3494	-1.44335	-0.784942	0
60.3578	-1.45418	-0.785012	0
60.3658	-1.46443	-0.784923	0
60.3738	-1.47447	-0.785012	0
60.382	-1.4848	-0.784961	0
60.3902	-1.49509	-0.784935	0
60.3986	-1.5055	-0.78498	0
60.407	-1.51584	-0.784916	0
60.4154	-1.52615	-0.784923	0
60.424	-1.53669	-0.784993	0
60.4326	-1.54723	-0.78498	0
60.4408	-1.55725	-0.785043	0
60.449	-1.56732	-0.784993	0
60.457	-1.57724	-0.784942	0
60.4652	-1.58721	-0.784942	0
60.4734	-1.59723	-0.784948	0
60.482	-1.60781	-0.784923	0
60.4902	-1.61785	-0.784999	0
60.499	-1.62839	-0.78498	0
60.5078	-1.63902	-0.784942	0
60.5166	-1.64954	-0.78491	0
60.5252	-1.6597	-0.784923	0
60.5338	-1.66999	-0.78491	0
60.5428	-1.68045	-0.784929	0
60.5512	-1.69025	-0.784884	0
60.5602	-1.70039	-0.785031	0
60.5694	-1.71091	-0.784923	0
60.5784	-1.72085	-0.784897	0
60.5876	-1.73086	-0.784999	0
60.597	-1.74096	-0.784948	0
60.6062	-1.75077	-0.784993	0
60.6152	-1.76024	-0.784903	0
60.6248	-1.77013	-0.785018	0
60.6348	-1.78036	-0.785018	0
60.6444	-1.79008	-0.785005	0
60.6546	-1.80008	-0.785005	0
60.6646	-1.80986	-0.785012	0
60.6752	-1.81992	-0.78491	0
60.6858	-1.82973	-0.784903	0
60.6968	-1.83964	-0.784948	0
60.708	-1.84951	-0.784916	0
60.72	-1.85976	-0.78498	0
60.732	-1.86958	-0.784993	0
60.7442	-1.87926	-0.784986	0
60.7566	-1.88875	-0.784935	0
60.7696	-1.89843	-0.78498	0
60.7834	-1.90812	-0.784954	0
60.7976	-1.91792	-0.78498	0
60.8128	-1.92785	-0.784935	0
60.829	-1.93814	-0.785037	0
60.8454	-1.94801	-0.784961	0
60.8618	-1.95761	-0.784986	0
60.879	-1.96739	-0.784999	0
60.897	-1.97718	-0.785056	0
60.9148	-1.98673	-0.784973	0
60.9342	-1.99671	-0.784999	0
60.953	-2.00633	-0.784942	0
60.9724	-2.0159	-0.784973	0
60.9916	-2.02539	-0.785069	0
61.0118	-2.03524	-0.784954	0
61.0322	-2.04484	-0.785005	0
61.0522	-2.05444	-0.78498	0
61.0724	-2.06391	-0.784942	0
61.0934	-2.07359	-0.784999	0
61.114	-2.08308	-0.784935	0
61.135	-2.09278	-0.784973	0
61.1568	-2.10265	-0.785012	0
61.1776	-2.11199	-0.784973	0
61.199	-2.12157	-0.784973	0
61.2204	-2.13116	-0.785075	0
61.2422	-2.14089	-0.784967	0
61.265	-2.15071	-0.784986	0
61.287	-2.16025	-0.784999	0
61.3092	-2.16989	-0.785043	0
61.3316	-2.17944	-0.785012	0
61.3542	-2.18897	-0.784935	0
61.3766	-2.19834	-0.785012	0
61.3986	-2.20814	-0.78498	0
61.4222	-2.21777	-0.784967	0
61.4452	-2.2272	-0.78498	0
61.469	-2.23684	-0.784961	0
61.4926	-2.2464	-0.784973	0
61.5174	-2.25631	-0.784993	0
61.5418	-2.26592	-0.784942	0
61.567	-2.27594	-0.784967	0
61.5924	-2.28575	-0.784999	0
61.6174	-2.29538	-0.784993	0
61.6426	-2.30498	-0.784935	0
61.6674	-2.31462	-0.78498	0
61.6936	-2.32445	-0.78498	0
61.7192	-2.33386	-0.784993	0
61.745	-2.34354	-0.785005	0
61.7714	-2.35313	-0.785018	0
61.798	-2.36264	-0.784999	0
61.8256	-2.37232	-0.785018	0
61.8524	-2.38177	-0.785031	0
61.8808	-2.39129	-0.785043	0
61.9098	-2.40088	-0.785005	0
61.9394	-2.41044	-0.78498	0
61.9704	-2.42012	-0.784967	0
62.0014	-2.42967	-0.784967	0
62.0338	-2.43912	-0.785024	0
62.0674	-2.44859	-0.784948	0
62.1036	-2.45819	-0.784961	0
62.1396	-2.46766	-0.784935	0
62.1798	-2.47726	-0.785012	0
62.2216	-2.48694	-0.785075	0
62.2664	-2.4966	-0.785012	0
62.3138	-2.50634	-0.78498	0
62.3646	-2.51602	-0.784967	0
62.416	-2.52547	-0.78498	0
62.472	-2.53494	-0.785018	0
62.5306	-2.54443	-0.785012	0
62.593	-2.55392	-0.785056	0
62.6584	-2.56337	-0.784999	0
62.7294	-2.57293	-0.784973	0
62.8034	-2.58227	-0.785005	0
62.8842	-2.59193	-0.785056	0
62.9696	-2.6014	-0.785075	0
63.0612	-2.61102	-0.784993	0
63.1582	-2.62051	-0.785024	0
63.2578	-2.62979	-0.785005	0
63.3654	-2.63928	-0.785024	0
63.4776	-2.64859	-0.784986	0
63.593	-2.65785	-0.785012	0
63.7154	-2.66725	-0.785037	0
63.8436	-2.67679	-0.785075	0
63.9734	-2.68613	-0.785018	0
64.1102	-2.69575	-0.785012	0
64.248	-2.70499	-0.784961	0
64.3876	-2.71431	-0.785018	0
64.5308	-2.72368	-0.78505	0
64.6786	-2.73313	-0.784961	0
64.8264	-2.74245	-0.784967	0
64.9784	-2.75179	-0.785005	0
65.1296	-2.76105	-0.784986	0
65.2856	-2.77042	-0.785082	0
65.4438	-2.77979	-0.785082	0
65.6054	-2.78921	-0.785056	0
65.7666	-2.7985	-0.785043	0
65.9316	-2.8079	-0.784986	0
66.097	-2.8172	-0.785082	0
66.2632	-2.82642	-0.785101	0
66.4324	-2.83575	-0.784967	0
66.6046	-2.84513	-0.785012	0
66.7796	-2.85452	-0.785012	0
66.9536	-2.86382	-0.785037	0
67.1278	-2.87312	-0.785012	0
67.3026	-2.8823	-0.784967	0
67.4808	-2.89169	-0.784999	0
67.6608	-2.90105	-0.784986	0
67.8426	-2.91042	-0.784999	0
68.0234	-2.91987	-0.785056	0
68.2052	-2.92921	-0.785018	0
68.3874	-2.9386	-0.784973	0
68.568	-2.94788	-0.785037	0
68.7456	-2.95704	-0.785031	0
68.9254	-2.96626	-0.785018	0
69.1048	-2.97556	-0.785018	0
69.2852	-2.98492	-0.785056	0
69.4708	-2.99448	-0.785012	0
69.647	-3.00376	-0.785018	0
69.8248	-3.01306	-0.785012	0
70.001	-3.02234	-0.785043	0
70.1788	-3.03183	-0.785005	0
70.354	-3.04114	-0.785056	0
70.5306	-3.05056	-0.784986	0
70.7058	-3.0601	-0.78505	0
70.877	-3.06927	-0.784993	0
71.0488	-3.07854	-0.785037	0
71.2184	-3.08777	-0.785024	0
71.3888	-3.09708	-0.784986	0
71.5628	-3.10646	-0.785082	0
71.7364	-3.11587	-0.78505	0
71.9056	-3.12513	-0.785056	0
72.0788	-3.13443	-0.78498	0
72.2534	-3.1438	-0.784948	0
72.4276	-3.15317	-0.785082	0
72.6034	-3.16259	-0.785005	0
72.7798	-3.17194	-0.785012	0
72.9572	-3.18128	-0.78498	0
73.1328	-3.19061	-0.785075	0
73.3128	-3.20008	-0.78505	0
73.4912	-3.2094	-0.785037	0
73.6676	-3.2186	-0.784986	0
73.8478	-3.22796	-0.785012	0
74.0326	-3.23741	-0.784986	0
74.2132	-3.24669	-0.785107	0
74.3978	-3.25602	-0.78505	0
74.5782	-3.26528	-0.785056	0
74.764	-3.27462	-0.784986	0
74.9466	-3.28378	-0.785107	0
75.1348	-3.29319	-0.784993	0
75.3206	-3.30249	-0.785005	0
75.5078	-3.31173	-0.785063	0
75.6958	-3.32105	-0.785024	0
75.8876	-3.33037	-0.785056	0
76.0788	-3.3397	-0.785056	0
76.2736	-3.34911	-0.785018	0
76.4678	-3.35847	-0.785101	0
76.6624	-3.36777	-0.785018	0
76.8586	-3.37703	-0.78498	0
77.0532	-3.38629	-0.785043	0
77.2544	-3.3956	-0.785024	0
77.4516	-3.40481	-0.78498	0
77.6544	-3.41418	-0.785075	0
77.8582	-3.42363	-0.785005	0
78.0628	-3.43299	-0.785005	0
78.2658	-3.44224	-0.785043	0
78.4698	-3.45152	-0.78505	0
78.6754	-3.46074	-0.785133	0
78.8836	-3.47012	-0.785063	0
79.0896	-3.47932	-0.785012	0
79.2994	-3.48852	-0.785005	0
79.5104	-3.4979	-0.784999	0
79.7234	-3.50723	-0.785012	0
79.9424	-3.51651	-0.784948	0
80.169	-3.52587	-0.785037	0
80.4354	-3.53515	-0.785075	0
82.14	-3.5361	-0.785043	0
83.8906	-3.54525	-0.784948	0
89.8106	-3.55441	-0.785037	0
131.813	-3.56174	-0.785075	0
213.962	-3.56896	-0.785005	0
240.052	-3.57062	-0.785063	0