File: EXPERIMENTAL/DATA/Electrochemical-cycling/S-series/2024-06-19_S09_Icell_t1800_C0030_J01_02_MB_C09.txt
time/s	Ewe/V	I/mA	error	Ece/V
60.053	2.87676	-0.025008	0	-0.00166802
60.144	0.00846697	-4.62939	0	5.39784e-06
60.146	0.00833336	-4.51019	0	-5.1858e-05
60.148	0.00840971	-4.40116	0	8.1739e-05
60.1502	0.0084288	-4.2906	0	0.000100824
60.1526	0.0084288	-4.17935	0	-1.36875e-05
60.155	0.0084288	-4.07642	0	8.1739e-05
60.1578	0.00835245	-3.96574	0	8.1739e-05
60.1608	0.00837153	-3.85766	0	-1.36875e-05
60.164	0.00835245	-3.74971	0	4.35684e-05
60.1674	0.00848606	-3.6445	0	4.35684e-05
60.171	0.00829519	-3.54011	0	6.26537e-05
60.175	0.00829519	-3.43324	0	2.44831e-05
60.1792	0.0084288	-3.3272	0	5.39784e-06
60.1838	0.00840971	-3.2197	0	2.44831e-05
60.1886	0.00837153	-3.11467	0	4.35684e-05
60.1938	0.00840971	-3.00863	0	-3.27727e-05
60.1992	0.00833336	-2.90507	0	5.39784e-06
60.205	0.00839062	-2.80024	0	0.000100824
60.2112	0.00848606	-2.69699	0	-1.36875e-05
60.2176	0.00833336	-2.59553	0	6.26537e-05
60.2246	0.00852423	-2.49362	0	-5.1858e-05
60.232	0.00839062	-2.39254	0	-3.27727e-05
60.2402	0.00833336	-2.28986	0	-1.36875e-05
60.2492	0.0082761	-2.18579	0	-1.36875e-05
60.2586	0.00833336	-2.08566	0	2.44831e-05
60.2688	0.00852423	-1.98471	0	-1.36875e-05
60.2802	0.0084288	-1.88134	0	8.1739e-05
60.2926	0.00848606	-1.77956	0	8.1739e-05
60.3058	0.00840971	-1.67885	0	-3.27727e-05
60.3208	0.0084288	-1.57847	0	-3.27727e-05
60.3374	0.00835245	-1.47771	0	-5.1858e-05
60.3562	0.00833336	-1.37618	0	-3.27727e-05
60.3776	0.00829519	-1.27573	0	-7.09433e-05
60.402	0.00846697	-1.17522	0	2.44831e-05
60.4314	0.00839062	-1.07388	0	5.39784e-06
60.4664	0.00840971	-0.973119	0	8.1739e-05
60.5092	0.00837153	-0.872545	0	0.000100824
60.563	0.00829519	-0.772034	0	-7.09433e-05
60.6322	0.00837153	-0.671397	0	2.44831e-05
60.7228	0.00840971	-0.571141	0	4.35684e-05
60.8494	0.00835245	-0.470694	0	0.000177165
61.0462	0.00833336	-0.370452	0	-5.1858e-05
61.3556	0.00848606	-0.269967	0	0.000138995
61.9666	0.00850514	-0.169954	0	8.1739e-05
63.9474	0.00848606	-0.0698965	0	5.39784e-06
81.347	0.00840971	-0.0102823	0	-3.27727e-05
101.347	0.00839062	-0.00621094	0	5.39784e-06
121.347	0.00848606	-0.00437262	0	5.39784e-06
141.347	0.00846697	-0.00307618	0	0.00015808
161.347	0.00848606	-0.00254476	0	4.35684e-05
181.347	0.00848606	-0.00228157	0	6.26537e-05
201.347	0.0084288	-0.00198904	0	6.26537e-05
221.347	0.00848606	-0.00184898	0	6.26537e-05
241.347	0.00848606	-0.00162912	0	6.26537e-05
261.347	0.0084288	-0.00179011	0	-1.36875e-05
281.347	0.00846697	-0.00147741	0	0.000138995
301.347	0.00831427	-0.00170586	0	6.26537e-05
321.347	0.00852423	-0.0014818	0	5.39784e-06
341.347	0.00850514	-0.00127448	0	0.00011991
361.347	0.00844788	-0.00118443	0	-3.27727e-05
381.347	0.00840971	-0.000966992	0	2.44831e-05
401.347	0.00848606	-0.000965528	0	-1.36875e-05
421.347	0.0084288	-0.000924993	0	6.26537e-05
441.347	0.00844788	-0.00102006	0	8.1739e-05
461.347	0.00844788	-0.00100543	0	4.35684e-05
481.347	0.00840971	-0.000933583	0	0.000100824
501.347	0.00850514	-0.000863903	0	0.000100824
521.347	0.00844788	-0.000747705	0	-1.36875e-05
541.347	0.0084288	-0.000637362	0	5.39784e-06
561.347	0.00835245	-0.000587726	0	2.44831e-05
581.347	0.00839062	-0.00062438	0	5.39784e-06
601.347	0.00840971	-0.000637553	0	2.44831e-05
621.347	0.00848606	-0.000696288	0	4.35684e-05
641.347	0.00846697	-0.000594726	0	-3.27727e-05
661.347	0.00848606	-0.000542036	0	2.44831e-05
681.347	0.0085624	-0.00068827	0	0.00011991
701.347	0.00844788	-0.000605162	0	0.00011991
721.347	0.00835245	-0.000558454	0	-7.09433e-05
741.347	0.00837153	-0.000581045	0	8.1739e-05
761.347	0.00840971	-0.000631825	0	5.39784e-06
781.347	0.00850514	-0.000650852	0	-0.000109114
801.347	0.00852423	-0.000660461	0	4.35684e-05
821.347	0.00846697	-0.000569272	0	5.39784e-06
841.347	0.0084288	-0.000531918	0	5.39784e-06
861.347	0.0084288	-0.000551327	0	5.39784e-06
881.347	0.0084288	-0.00115662	0	5.39784e-06
901.347	0.00850514	-0.000515373	0	6.26537e-05
921.347	0.00840971	-0.000486801	0	2.44831e-05
941.347	0.00839062	-0.000506528	0	5.39784e-06
961.347	0.00848606	-0.000437356	0	-3.27727e-05
981.347	0.00852423	-0.000409675	0	2.44831e-05
1001.35	0.00835245	-0.00042132	0	-0.000109114
1021.35	0.00833336	-0.000408339	0	2.44831e-05
1041.35	0.00833336	-0.00065168	0	8.1739e-05
1061.35	0.00837153	-0.000361376	0	0.000138995
1081.35	0.00848606	-0.000649707	0	4.35684e-05
1101.35	0.00840971	-0.000388994	0	-3.27727e-05
1121.35	0.00840971	-0.000507228	0	5.39784e-06
1141.35	0.00840971	-0.000559981	0	-7.09433e-05
1161.35	0.00837153	-0.000378557	0	6.26537e-05
1181.35	0.0084288	-0.000381739	0	-3.27727e-05
1201.35	0.00835245	-0.000480883	0	-7.09433e-05
1221.35	0.00837153	-0.000342858	0	4.35684e-05
1241.35	0.00837153	-0.000459247	0	-0.000109114
1261.35	0.00852423	-0.000343558	0	4.35684e-05
1281.35	0.00840971	-0.000319822	0	0.00011991
1301.35	0.00840971	-0.000347885	0	2.44831e-05
1321.35	0.00839062	-0.000367803	0	-3.27727e-05
1341.35	0.0084288	-0.000406684	0	4.35684e-05
1361.35	0.00835245	-0.000522118	0	5.39784e-06
1381.35	0.0084288	-0.000391539	0	2.44831e-05
1401.35	0.0084288	-0.000326568	0	-1.36875e-05
1421.35	0.00840971	-0.000349158	0	4.35684e-05
1441.35	0.00846697	-0.000423293	0	0.000100824
1461.35	0.00840971	-0.000336431	0	0.00011991
1481.35	0.0085624	-0.000412157	0	5.39784e-06
1501.35	0.00844788	-0.00027795	0	4.35684e-05
1521.35	0.00839062	-0.000378176	0	0.000215336
1541.35	0.0084288	-0.000294686	0	5.39784e-06
1561.35	0.00844788	-0.000398157	0	-9.00286e-05
1581.35	0.00840971	-0.000399875	0	5.39784e-06
1601.35	0.00840971	-0.000354058	0	2.44831e-05
1621.35	0.00846697	-0.000319695	0	0.000177165
1641.35	0.00850514	-0.000285396	0	6.26537e-05
1661.35	0.00837153	-0.000331531	0	-3.27727e-05
1681.35	0.00848606	-0.000370667	0	2.44831e-05
1701.35	0.00833336	-0.000279605	0	8.1739e-05
1721.35	0.00844788	-0.000307286	0	2.44831e-05
1741.35	0.00839062	-0.000293795	0	-3.27727e-05
1761.35	0.00846697	-0.000371621	0	-7.09433e-05
1781.35	0.0085624	-0.000290423	0	2.44831e-05
1801.35	0.00835245	-0.00037983	0	5.39784e-06
1821.35	0.00846697	-0.000313013	0	0.000177165
1841.35	0.00840971	-0.000402421	0	2.44831e-05
1860.05	0.00852423	-0.000375248	0	8.1739e-05