File: EXPERIMENTAL/DATA/Electrochemical-cycling/S-series/2024-07-02_S21_Icell_t1800_C0000_J01_deltaX-110,1mm_plating-stripping_02_MB_C03.txt
time/s	Ewe/V	I/mA	error	Ece/V
60.053	2.54917	-0.0250202	0	-0.000804487
60.1434	0.00913819	-6.88526	0	1.07886e-05
60.1442	0.00930998	-6.6907	0	6.80457e-05
60.145	0.00921454	-6.50581	0	2.98743e-05
60.1458	0.00910002	-6.3297	0	-6.55542e-05
60.1466	0.00908093	-6.16187	0	-8.29709e-06
60.1474	0.00917637	-6.00262	0	2.98743e-05
60.1482	0.00929089	-5.84992	0	0.000106217
60.149	0.00921454	-5.70378	0	0.000144388
60.1498	0.00921454	-5.56546	0	1.07886e-05
60.1506	0.00915728	-5.433	0	-8.29709e-06
60.1514	0.00915728	-5.30632	0	0.000106217
60.1522	0.00923363	-5.18557	0	6.80457e-05
60.153	0.0092718	-5.06926	0	8.71314e-05
60.1538	0.0092718	-4.95773	0	-2.73828e-05
60.1546	0.00915728	-4.85186	0	4.896e-05
60.1556	0.00923363	-4.72608	0	-2.73828e-05
60.1568	0.00923363	-4.58292	0	8.71314e-05
60.158	0.00915728	-4.44792	0	4.896e-05
60.1592	0.00913819	-4.3215	0	0.000106217
60.1604	0.00921454	-4.20246	0	-4.64685e-05
60.1616	0.00925271	-4.08851	0	1.07886e-05
60.1628	0.00921454	-3.98162	0	-6.55542e-05
60.1642	0.00923363	-3.86455	0	1.07886e-05
60.1658	0.0092718	-3.73883	0	-8.29709e-06
60.1674	0.00917637	-3.62196	0	4.896e-05
60.169	0.00919545	-3.511	0	-2.73828e-05
60.1706	0.00930998	-3.4085	0	1.07886e-05
60.1726	0.00934815	-3.28832	0	2.98743e-05
60.1746	0.00925271	-3.17704	0	4.896e-05
60.1766	0.00921454	-3.07346	0	8.71314e-05
60.179	0.00915728	-2.9576	0	4.896e-05
60.1814	0.00936724	-2.84989	0	-6.55542e-05
60.1842	0.00910002	-2.73613	0	-2.73828e-05
60.187	0.00919545	-2.63071	0	6.80457e-05
60.1902	0.00930998	-2.52032	0	-4.64685e-05
60.1936	0.00929089	-2.41241	0	6.80457e-05
60.1974	0.00936724	-2.30254	0	0.00018256
60.2014	0.00936724	-2.19788	0	-4.64685e-05
60.206	0.00923363	-2.08902	0	-0.000103726
60.211	0.00913819	-1.98226	0	2.98743e-05
60.2164	0.00915728	-1.87919	0	4.896e-05
60.2224	0.00917637	-1.7751	0	4.896e-05
60.2292	0.00923363	-1.67171	0	6.80457e-05
60.2368	0.00913819	-1.56909	0	-2.73828e-05
60.2452	0.00919545	-1.46863	0	6.80457e-05
60.2548	0.00936724	-1.36727	0	8.71314e-05
60.2658	0.00917637	-1.26592	0	2.98743e-05
60.2786	0.00921454	-1.16463	0	0.000106217
60.2938	0.00923363	-1.06277	0	0.000106217
60.3114	0.00921454	-0.961802	0	0.000144388
60.3334	0.00919545	-0.860959	0	2.98743e-05
60.3602	0.00925271	-0.760116	0	0.000106217
60.3944	0.00921454	-0.659464	0	-4.64685e-05
60.4426	0.00917637	-0.558239	0	-8.29709e-06
60.5106	0.00925271	-0.457905	0	0.000144388
60.6408	0.00932906	-0.345808	0	8.71314e-05
60.8664	0.00921454	-0.245743	0	0.000125303
61.4294	0.0091191	-0.145564	0	-2.73828e-05
64.3064	0.00913819	-0.0453779	0	8.71314e-05
84.3064	0.00915728	-0.00717199	0	-2.73828e-05
104.306	0.0092718	-0.00353371	0	4.896e-05
124.306	0.00915728	-0.0022956	0	-6.55542e-05
144.306	0.00929089	-0.00167104	0	-8.29709e-06
164.306	0.0092718	-0.00134695	0	1.07886e-05
184.306	0.00929089	-0.00111674	0	-2.73828e-05
204.306	0.00921454	-0.000951773	0	2.98743e-05
224.306	0.00917637	-0.000838929	0	0.000144388
244.306	0.00921454	-0.00073945	0	0.000163474
264.306	0.00925271	-0.000676694	0	-6.55542e-05
284.306	0.00921454	-0.000616549	0	6.80457e-05
304.306	0.00932906	-0.000577661	0	1.07886e-05
324.306	0.00919545	-0.000530754	0	0.000163474
344.306	0.00923363	-0.00048792	0	-2.73828e-05
364.306	0.00925271	-0.000430447	0	4.896e-05
384.306	0.00923363	-0.000417273	0	-8.46399e-05
404.306	0.0092718	-0.000388377	0	-4.64685e-05
424.306	0.00929089	-0.000389205	0	1.07886e-05
444.306	0.00932906	-0.000344334	0	0.000144388
464.306	0.00930998	-0.000352353	0	8.71314e-05
484.306	0.00929089	-0.000342106	0	-6.55542e-05
504.306	0.00919545	-0.000318175	0	4.896e-05
524.306	0.00917637	-0.000297745	0	6.80457e-05
544.306	0.00925271	-0.000311747	0	6.80457e-05
564.306	0.00936724	-0.000303855	0	-4.64685e-05
584.306	0.00915728	-0.000307483	0	-2.73828e-05
604.306	0.00915728	-0.00027305	0	6.80457e-05
624.306	0.00923363	-0.0002397	0	0.000144388
644.306	0.00923363	-0.000264267	0	1.07886e-05
664.306	0.00925271	-0.000239254	0	6.80457e-05
684.306	0.0092718	-0.000241736	0	-2.73828e-05
704.306	0.00929089	-0.000207367	0	-2.73828e-05
724.306	0.00915728	-0.000217423	0	-4.64685e-05
744.306	0.00919545	-0.000213414	0	0.000125303
764.306	0.0092718	-0.000191201	0	-8.46399e-05
784.306	0.00925271	-0.000170771	0	4.896e-05
804.306	0.00921454	-0.000195784	0	0.000163474
824.306	0.00925271	-0.000170389	0	4.896e-05
844.306	0.00923363	-0.0001842	0	-4.64685e-05
864.306	0.00929089	-0.000171344	0	-4.64685e-05
884.306	0.00913819	-0.000163579	0	4.896e-05
904.306	0.0091191	-0.000189865	0	0.000125303
924.306	0.00925271	-0.000175035	0	2.98743e-05
944.306	0.00921454	-0.000123991	0	4.896e-05
964.306	0.00917637	-0.000166125	0	0.000106217
984.306	0.00925271	-0.000158169	0	4.896e-05
1004.31	0.00925271	-0.00013602	0	-2.73828e-05
1024.31	0.00917637	-0.000156641	0	6.80457e-05
1044.31	0.00910002	-0.000130037	0	-2.73828e-05
1064.31	0.0092718	-0.000157914	0	8.71314e-05
1084.31	0.00915728	-0.000129401	0	1.07886e-05
1104.31	0.00915728	-0.000153459	0	2.98743e-05
1124.31	0.00921454	-0.000160333	0	-2.73828e-05
1144.31	0.0092718	-0.000144803	0	4.896e-05
1164.31	0.00915728	-0.000154032	0	8.71314e-05
1184.31	0.00930998	-0.000143848	0	8.71314e-05
1204.31	0.00917637	-0.000148049	0	0.000163474
1224.31	0.00923363	-0.000137802	0	4.896e-05
1244.31	0.00923363	-0.000125455	0	-2.73828e-05
1264.31	0.00929089	-0.00013672	0	1.07886e-05
1284.31	0.00919545	-0.000135065	0	2.98743e-05
1304.31	0.00919545	-0.000124818	0	4.896e-05
1324.31	0.0092718	-0.000120427	0	1.07886e-05
1344.31	0.00929089	-0.00014493	0	2.98743e-05
1364.31	0.00917637	-0.000122336	0	-2.73828e-05
1384.31	0.00923363	-9.94234e-05	0	-6.55542e-05
1404.31	0.00929089	-0.000128637	0	4.896e-05
1424.31	0.00929089	-0.000115208	0	2.98743e-05
1444.31	0.00921454	-0.000110243	0	-4.64685e-05
1464.31	0.00925271	-0.000119154	0	-4.64685e-05
1484.31	0.0092718	-0.000123991	0	-4.64685e-05
1504.31	0.00925271	-0.000115653	0	-6.55542e-05
1524.31	0.00921454	-0.000131501	0	-2.73828e-05
1544.31	0.00919545	-0.000112916	0	-2.73828e-05
1564.31	0.00925271	-9.9487e-05	0	-2.73828e-05
1584.31	0.00919545	-0.000113935	0	4.896e-05
1604.31	0.00923363	-0.000113362	0	-8.29709e-06
1624.31	0.00919545	-0.000128573	0	-8.29709e-06
1644.31	0.00919545	-8.21752e-05	0	1.07886e-05
1664.31	0.00915728	-9.09584e-05	0	6.80457e-05
1684.31	0.00921454	-0.00011769	0	4.896e-05
1704.31	0.00915728	-0.000117372	0	1.07886e-05
1724.31	0.00917637	-7.91839e-05	0	-8.46399e-05
1744.31	0.00932906	-0.000114317	0	-0.000141897
1764.31	0.0092718	-8.28753e-05	0	0.000106217
1784.31	0.00930998	-8.94309e-05	0	1.07886e-05
1804.31	0.00921454	-8.24935e-05	0	4.896e-05
1824.31	0.00919545	-7.89929e-05	0	-8.29709e-06
1844.31	0.0092718	-9.92324e-05	0	-8.46399e-05
1860.05	0.00915728	-9.12766e-05	0	-0.000180068