File: EXPERIMENTAL/DATA/Electrochemical-cycling/S-series/2024-06-24_S11_TPcell_t1800_C0500_J01_02_MB_C10.txt
time/s	Ewe/V	I/mA	error
60.053	2.22898	-0.0250155	0
60.2182	0.00863056	-37.6819	0
60.3168	0.00863056	-27.9197	0
60.5668	0.00872602	-20.5322	0
60.682	0.00864965	-18.5251	0
60.8026	0.00861147	-17.5177	0
60.941	0.00859238	-16.076	0
61.036	0.00847783	-15.3001	0
61.2012	0.00864965	-14.6215	0
61.2718	0.00863056	-14.6107	0
61.3516	0.0085542	-13.6478	0
61.4502	0.00859238	-13.7617	0
61.5276	0.00870693	-12.8433	0
61.6052	0.00864965	-13.043	0
61.739	0.00870693	-11.9987	0
61.8252	0.00864965	-12.2334	0
61.9022	0.00870693	-11.9504	0
61.953	0.00857329	-11.8785	0
62.0242	0.00863056	-12.3282	0
62.076	0.00906966	-11.5192	0
62.1204	0.00845874	-11.6369	0
62.1624	0.00866874	-10.9837	0
62.2104	0.00872602	-10.702	0
62.3298	0.00849693	-10.2842	0
62.3842	0.00847783	-13.181	0
62.4392	0.00857329	-10.026	0
62.4918	0.00874511	-10.8037	0
62.5442	0.00868784	-10.4794	0
62.5976	0.00864965	-10.9392	0
62.6722	0.00857329	-10.2377	0
62.7282	0.00849693	-11.3259	0
62.7846	0.00863056	-10.3147	0
62.8338	0.0085542	-11.1936	0
62.8806	0.00863056	-9.5	0
62.9302	0.00824874	-10.1385	0
62.9896	0.00868784	-10.2822	0
63.0506	0.00861147	-8.96579	0
63.1036	0.00864965	-9.19156	0
63.1622	0.0085542	-9.60939	0
63.2156	0.00857329	-11.3507	0
63.277	0.00857329	-9.30985	0
63.328	0.00847783	-8.7362	0
63.3834	0.00859238	-9.44277	0
63.447	0.00868784	-10.9398	0
63.5144	0.0087642	-10.0444	0
63.571	0.00866874	-8.95625	0
63.6224	0.00863056	-9.82944	0
63.6784	0.00882147	-7.99529	0
63.7334	0.00851602	-8.04045	0
63.7802	0.00872602	-8.51107	0
63.8404	0.00872602	-10.1449	0
63.8884	0.00929875	-10.5087	0
63.9398	0.00838238	-8.60137	0
63.9884	0.0085542	-8.32981	0
64.0548	0.0085542	-8.72602	0
64.132	0.00853511	-7.84139	0
64.1784	0.00849693	-8.84241	0
64.2224	0.00845874	-8.78453	0
64.2736	0.00866874	-9.72323	0
64.3162	0.00870693	-11.4957	0
64.3598	0.00842056	-8.03599	0
64.405	0.00861147	-8.37815	0
64.4662	0.00859238	-8.20771	0
64.5178	0.00859238	-9.41923	0
64.5708	0.00822965	-10.1392	0
64.6162	0.00861147	-8.54477	0
64.656	0.00853511	-9.00649	0
64.6942	0.00866874	-8.28402	0
64.7384	0.00849693	-8.74638	0
64.779	0.00864965	-9.05546	0
64.8176	0.00861147	-7.79114	0
64.8768	0.00891693	-7.56029	0
64.9214	0.00885966	-8.76546	0
64.9614	0.00866874	-6.96438	0
65.0042	0.00851602	-9.58968	0
65.0454	0.00861147	-6.93131	0
65.0904	0.00857329	-7.50941	0
65.132	0.00849693	-10.4788	0
65.17	0.00843965	-7.85347	0
65.2146	0.00887875	-6.96883	0
65.2608	0.0085542	-7.48969	0
65.3128	0.00884056	-9.0898	0
65.3508	0.00872602	-7.99529	0
65.3926	0.00882147	-6.68773	0
65.4322	0.00851602	-7.91007	0
65.4814	0.00868784	-11.0047	0
65.5204	0.00868784	-10.8241	0
65.5594	0.00870693	-7.60735	0
65.6056	0.00849693	-9.37344	0
65.644	0.0085542	-8.24205	0
65.6952	0.00861147	-8.0697	0
65.7432	0.00874511	-8.37242	0
65.7814	0.00853511	-8.37052	0
65.827	0.00864965	-8.38451	0
65.875	0.00853511	-7.7479	0
65.9198	0.00828693	-7.18952	0
65.9616	0.00870693	-6.06575	0
66.0034	0.0085542	-7.72373	0
66.0462	0.00851602	-8.95752	0
66.0918	0.00853511	-8.75401	0
66.1318	0.00878329	-6.22538	0
66.1702	0.00840147	-7.24039	0
66.2108	0.00864965	-6.64512	0
66.2484	0.00861147	-8.10913	0
66.2892	0.00870693	-8.36988	0
66.3378	0.00872602	-7.38031	0
66.3804	0.00861147	-7.71419	0
66.4308	0.00870693	-9.57568	0
66.4798	0.00864965	-10.7427	0
66.5324	0.00872602	-9.16039	0
66.5732	0.00857329	-7.37776	0
66.6128	0.00838238	-6.95484	0
66.6644	0.00866874	-9.43704	0
66.7114	0.0083442	-6.25146	0
66.7504	0.00878329	-9.82753	0
66.7946	0.0085542	-6.25654	0
66.8354	0.00845874	-9.42496	0
66.879	0.00832511	-6.88934	0
66.924	0.00895511	-5.86415	0
66.967	0.00872602	-6.0454	0
67.0108	0.00828693	-8.02009	0
67.0492	0.00864965	-9.10761	0
67.085	0.00874511	-12.5679	0
67.1216	0.00864965	-7.0178	0
67.1618	0.00874511	-5.89595	0
67.2116	0.00853511	-7.66713	0
67.2524	0.00849693	-8.75337	0
67.29	0.00819147	-8.84877	0
67.3286	0.00889784	-8.33999	0
67.3732	0.00847783	-11.8518	0
67.4106	0.00880238	-8.89519	0
67.4474	0.00828693	-7.17362	0
67.489	0.00853511	-5.6988	0
67.5334	0.00851602	-5.59068	0
67.5858	0.00922238	-5.66827	0
67.6284	0.00861147	-11.495	0
67.6744	0.00910784	-8.25413	0
67.714	0.00859238	-8.22361	0
67.7524	0.00849693	-6.87026	0
67.7906	0.00840147	-11.2706	0
67.8376	0.00882147	-7.18443	0
67.8774	0.00864965	-6.29216	0
67.9262	0.00864965	-5.44631	0
68.0096	0.00853511	-5.2975	0
68.1094	0.00857329	-8.54732	0
68.19	0.00843965	-9.0421	0
68.2922	0.00859238	-5.59259	0
68.3776	0.00872602	-8.80107	0
68.4766	0.00878329	-6.85436	0
68.5686	0.00859238	-6.52302	0
68.6702	0.0091842	-8.31455	0
68.7516	0.00857329	-5.43232	0
68.8542	0.0089742	-14.846	0
68.9572	0.00798147	-13.8138	0
69.0382	0.00882147	-5.78974	0
69.1414	0.00763783	-10.9004	0
69.222	0.00815329	-5.43423	0
69.327	0.00861147	-7.71356	0
69.4098	0.00863056	-5.13342	0
69.5106	0.00857329	-7.02162	0
69.601	0.00828693	-13.4278	0
69.7032	0.00822965	-10.4419	0
69.7854	0.0085542	-8.44747	0
69.8902	0.00866874	-7.53612	0
69.972	0.00861147	-7.62897	0
70.0782	0.00853511	-5.77448	0
70.1796	0.00872602	-6.07974	0
70.2598	0.00872602	-5.39098	0
70.3628	0.00815329	-7.09539	0
70.4452	0.00872602	-12.849	0
70.5544	0.00866874	-9.91847	0
70.6354	0.00847783	-11.109	0
70.739	0.00780965	-7.42355	0
70.8196	0.00885966	-9.40461	0
70.9242	0.00922238	-8.70313	0
71.0058	0.00843965	-6.27053	0
71.1082	0.00874511	-13.5193	0
71.1894	0.00872602	-8.48054	0
71.2942	0.00851602	-13.4144	0
71.396	0.00912693	-7.65632	0
71.4766	0.00832511	-9.49174	0
71.5884	0.00872602	-5.11815	0
71.6676	0.00842056	-13.5651	0
71.7712	0.00878329	-8.13266	0
71.851	0.00857329	-5.08508	0
71.9556	0.00861147	-9.05291	0
72.0354	0.00868784	-8.40104	0
72.1392	0.00868784	-19.7061	0
72.221	0.0087642	-8.85131	0
72.3256	0.0110551	-12.2792	0
72.4292	0.00811511	-12.0261	0
72.5098	0.00851602	-12.7638	0
72.62	0.00851602	-5.48956	0
72.7	0.00878329	-13.5537	0
72.8046	0.00758056	-11.1408	0
72.8854	0.0083442	-13.2599	0
72.9884	0.00851602	-8.67387	0
73.0724	0.00882147	-15.791	0
73.174	0.00845874	-10.8635	0
73.2528	0.00857329	-7.07695	0
73.3562	0.00838238	-19.3678	0
73.4382	0.00836329	-11.5364	0
73.5414	0.00864965	-16.3456	0
73.652	0.00819147	-20.3014	0
73.7326	0.00880238	-9.41351	0
73.8368	0.00840147	-9.99034	0
73.9174	0.00853511	-17.463	0
74.0214	0.00941329	-13.8481	0
74.1022	0.00811511	-16.4906	0
74.2056	0.00817238	-30.5978	0
74.2858	0.00838238	-22.8885	0
74.3906	0.010196	-19.224	0
74.47	0.0081342	-24.991	0
74.5752	0.00996693	-23.9843	0
74.6548	0.00927966	-29.4498	0
74.767	0.00872602	-41.9683	0
74.8716	0.00924148	-49.5962	0
74.9522	0.00889784	-38.3185	0
75.0554	0.00843965	-43.5843	0
75.1358	0.0081342	-45.215	0
75.2392	0.00819147	-50.0509	0
75.3202	0.00947057	-48.8934	0
75.4238	0.00864965	-55.1228	0
75.505	0.00857329	-77.8435	0
75.6092	0.00815329	-70.8224	0
75.6978	0.0089742	-79.1988	0
75.8002	0.00853511	-79.9324	0
75.881	0.00887875	-72.4499	0
75.985	0.00863056	-62.5115	0
76.089	0.00847783	-65.4192	0
76.1696	0.00849693	-68.1806	0
76.273	0.00866874	-82.2548	0
76.3528	0.00863056	-105.37	0
76.4568	0.00826783	-89.101	0
76.536	0.00830602	-109.519	0
76.6412	0.00863056	-119.661	0
76.729	0.0085542	-122.091	0
76.8334	0.00853511	-111.008	0
76.9134	0.00880238	-157.69	0
77.0184	0.00851602	-161.769	0
77.0982	0.00880238	-149.82	0
77.2006	0.00868784	-142.216	0
77.3036	0.00843965	-149.069	0
77.3828	0.00885966	-140.11	0
77.4874	0.00857329	-156.539	0
77.5678	0.0087642	-169.213	0
77.6708	0.00863056	-204.596	0
77.7592	0.0089742	-176.479	0
77.8644	0.00870693	-191.113	0
77.9436	0.00866874	-206.085	0
78.0476	0.00878329	-219.37	0
78.1282	0.00863056	-213.491	0
78.2332	0.0087642	-240.379	0
78.3366	0.00874511	-223.105	0
78.4172	0.00870693	-250.967	0
78.5216	0.00849693	-248.135	0
78.6018	0.00845874	-245.158	0
78.706	0.00866874	-263.851	0
78.794	0.00868784	-268.006	0
78.8984	0.00872602	-272.04	0
78.9786	0.00849693	-258.379	0
79.0826	0.00859238	-281.17	0
79.1634	0.00859238	-300.894	0
79.2678	0.00845874	-297.077	0
79.3482	0.00853511	-284.498	0
79.452	0.0087642	-289.219	0
79.5556	0.00868784	-310.903	0
79.6358	0.00889784	-317.291	0
79.7398	0.00872602	-329.698	0
79.8274	0.0083442	-332.339	0
79.931	0.00859238	-320.11	0
80.0126	0.00847783	-344.962	0
80.1152	0.00826783	-329.698	0
80.1946	0.00851602	-347.113	0
80.299	0.00849693	-371.94	0
80.3784	0.00884056	-364.903	0
80.4828	0.00859238	-377.494	0
80.5626	0.00889784	-375.306	0
80.6674	0.00849693	-388.533	0
80.771	0.00878329	-404.555	0
80.8582	0.00853511	-397.524	0
80.9622	0.00864965	-416.866	0
81.043	0.00864965	-411.942	0
81.146	0.00842056	-419.176	0
81.226	0.00882147	-426.69	0
81.3308	0.00861147	-434.574	0
81.4118	0.00843965	-435.662	0
81.5148	0.00863056	-433.581	0
81.5956	0.00868784	-448.088	0
81.6998	0.00868784	-468.385	0
81.7802	0.00857329	-472.196	0
81.8906	0.00878329	-477.401	0
81.9954	0.00851602	-507.916	0
82.0756	0.0087642	-507.458	0
82.1788	0.00853511	-522.836	0
82.2588	0.00872602	-520.686	0
82.3626	0.00840147	-545.029	0
82.4432	0.00830602	-557.137	0
82.5464	0.00884056	-566.07	0
82.5552	0.00836329	-573.139	1