File: EXPERIMENTAL/DATA/Electrochemical-cycling/S-series/2024-06-19_S06_Icell_t1800_C0001_J01_02_MB_C10.txt
time/s	Ewe/V	I/mA	error	Ece/V
60.053	2.82912	-0.0250155	0	-0.00139481
60.1438	0.00863056	-6.24967	0	-4.25666e-05
60.145	0.00864965	-6.13834	0	-8.07476e-05
60.1462	0.00864965	-6.03217	0	-8.07476e-05
60.1474	0.00872602	-5.93066	0	-2.34761e-05
60.149	0.00857329	-5.80423	0	-6.16571e-05
60.1506	0.00868784	-5.68322	0	1.47049e-05
60.1522	0.00861147	-5.57093	0	3.37954e-05
60.1538	0.00863056	-5.46356	0	7.19764e-05
60.1554	0.00859238	-5.36236	0	1.47049e-05
60.1574	0.00878329	-5.24364	0	7.19764e-05
60.1594	0.0085542	-5.13232	0	1.47049e-05
60.1614	0.00874511	-5.02679	0	1.47049e-05
60.1636	0.0085542	-4.91731	0	0.000110157
60.166	0.00863056	-4.80522	0	-4.38561e-06
60.1684	0.00870693	-4.69867	0	-9.98381e-05
60.1712	0.00861147	-4.58511	0	5.28859e-05
60.174	0.0087642	-4.47742	0	1.47049e-05
60.177	0.00874511	-4.36934	0	-4.38561e-06
60.1802	0.00849693	-4.2626	0	3.37954e-05
60.1836	0.00868784	-4.15599	0	0.000129248
60.1872	0.00851602	-4.05091	0	1.47049e-05
60.191	0.00849693	-3.94716	0	-4.38561e-06
60.1952	0.00861147	-3.84068	0	3.37954e-05
60.1996	0.00861147	-3.73725	0	0.000110157
60.2044	0.00866874	-3.63262	0	1.47049e-05
60.2096	0.00866874	-3.52696	0	-4.25666e-05
60.2152	0.00857329	-3.42169	0	9.10669e-05
60.2212	0.0085542	-3.31718	0	7.19764e-05
60.2276	0.00864965	-3.21465	0	-0.000118929
60.2344	0.00859238	-3.11313	0	9.10669e-05
60.2418	0.00859238	-3.01277	0	-6.16571e-05
60.2498	0.00864965	-2.91042	0	5.28859e-05
60.2588	0.00866874	-2.80553	0	-2.34761e-05
60.2682	0.00863056	-2.70421	0	3.37954e-05
60.2788	0.00857329	-2.59957	0	-8.07476e-05
60.29	0.00861147	-2.49895	0	0.000129248
60.3022	0.00864965	-2.39757	0	9.10669e-05
60.3158	0.00866874	-2.29503	0	1.47049e-05
60.3306	0.00874511	-2.19307	0	-6.16571e-05
60.347	0.00866874	-2.0913	0	7.19764e-05
60.365	0.00853511	-1.98966	0	0.000129248
60.385	0.00870693	-1.88853	0	-8.07476e-05
60.4076	0.00872602	-1.78708	0	3.37954e-05
60.4328	0.00864965	-1.68589	0	9.10669e-05
60.4612	0.00863056	-1.58527	0	5.28859e-05
60.4936	0.00866874	-1.48401	0	1.47049e-05
60.5308	0.00874511	-1.38326	0	3.37954e-05
60.5738	0.00870693	-1.2827	0	0.000148338
60.6252	0.00863056	-1.1817	0	-4.25666e-05
60.6858	0.00861147	-1.08088	0	-4.25666e-05
60.759	0.00861147	-0.980072	0	0.000110157
60.8494	0.00864965	-0.879705	0	3.37954e-05
60.964	0.00866874	-0.779275	0	3.37954e-05
61.1098	0.00859238	-0.678271	0	-2.34761e-05
61.3232	0.00872602	-0.577714	0	5.28859e-05
61.6358	0.00859238	-0.477283	0	0.000186519
62.1894	0.00866874	-0.377189	0	-2.34761e-05
63.2302	0.00874511	-0.277075	0	5.28859e-05
66.3172	0.00864965	-0.177	0	-4.38561e-06
81.8392	0.00866874	-0.0947478	0	3.37954e-05
97.2144	0.00861147	-0.0714709	0	1.47049e-05
117.214	0.00866874	-0.0604624	0	1.47049e-05
137.214	0.0087642	-0.0532846	0	-8.07476e-05
157.214	0.00866874	-0.0488819	0	1.47049e-05
177.214	0.00870693	-0.0453978	0	7.19764e-05
197.214	0.00868784	-0.0425754	0	9.10669e-05
200.959	0.00866874	-0.0428997	0	3.37954e-05
218.376	0.014167	-0.114961	0	7.19764e-05
228.407	0.00874511	-0.0393738	0	-2.34761e-05
248.407	0.00870693	-0.0376692	0	7.19764e-05
268.407	0.00868784	-0.0362071	0	7.19764e-05
288.407	0.00872602	-0.0346292	0	0.000110157
308.407	0.00868784	-0.033421	0	7.19764e-05
328.407	0.00863056	-0.0322636	0	3.37954e-05
348.407	0.0087642	-0.031761	0	0.000110157
368.407	0.00870693	-0.0310121	0	-4.38561e-06
388.407	0.00868784	-0.0302671	0	3.37954e-05
408.407	0.00868784	-0.0293763	0	9.10669e-05
428.407	0.00866874	-0.028812	0	-0.000138019
448.407	0.00870693	-0.0283131	0	-6.16571e-05
468.407	0.00866874	-0.0283443	0	3.37954e-05
488.407	0.00866874	-0.0271214	0	0.000110157
508.407	0.00880238	-0.026718	0	-2.34761e-05
528.407	0.0087642	-0.0263942	0	3.37954e-05
548.407	0.00870693	-0.0259615	0	5.28859e-05
568.407	0.0087642	-0.0255499	0	3.37954e-05
588.407	0.0087642	-0.024878	0	0.000110157
608.407	0.00874511	-0.0249079	0	1.47049e-05
628.407	0.00870693	-0.0245955	0	5.28859e-05
648.407	0.00880238	-0.0243321	0	-2.34761e-05
668.407	0.00872602	-0.0240846	0	0.000110157
688.407	0.00866874	-0.023713	0	5.28859e-05
708.407	0.00870693	-0.023442	0	-4.38561e-06
728.407	0.00870693	-0.0231378	0	1.47049e-05
748.407	0.00861147	-0.0230246	0	-4.38561e-06
768.407	0.00861147	-0.0228394	0	5.28859e-05
788.407	0.00872602	-0.0225951	0	0.000110157
808.407	0.00872602	-0.0223215	0	-4.38561e-06
828.407	0.00887875	-0.0220435	0	7.19764e-05
848.407	0.00870693	-0.0218832	0	5.28859e-05
868.407	0.00864965	-0.0216948	0	-4.38561e-06
888.407	0.00863056	-0.0214327	0	-4.38561e-06
908.407	0.00861147	-0.021203	0	-4.25666e-05
928.407	0.00866874	-0.0209879	0	-4.38561e-06
948.407	0.00878329	-0.0209269	0	7.19764e-05
968.407	0.00868784	-0.0206876	0	-4.38561e-06
988.407	0.00872602	-0.0205133	0	7.19764e-05
1008.41	0.00863056	-0.0204128	0	-8.07476e-05
1028.41	0.00864965	-0.0202314	0	7.19764e-05
1048.41	0.00866874	-0.0199629	0	3.37954e-05
1068.41	0.00874511	-0.0198395	0	-4.25666e-05
1088.41	0.00870693	-0.0196105	0	9.10669e-05
1108.41	0.00882147	-0.019251	0	-0.000118929
1128.41	0.00868784	-0.0191333	0	7.19764e-05
1148.41	0.00874511	-0.0189583	0	-2.34761e-05
1168.41	0.00874511	-0.0188037	0	-0.000118929
1188.41	0.0087642	-0.018637	0	5.28859e-05
1208.41	0.00866874	-0.0185218	0	3.37954e-05
1228.41	0.00874511	-0.0185091	0	0.000148338
1248.41	0.00872602	-0.018532	0	9.10669e-05
1268.41	0.00878329	-0.0184289	0	-4.38561e-06
1288.41	0.00872602	-0.0182794	0	-4.25666e-05
1308.41	0.00874511	-0.0181693	0	-2.34761e-05
1328.41	0.00866874	-0.0180185	0	0.000148338
1348.41	0.00866874	-0.0179231	0	0.000148338
1368.41	0.00868784	-0.017771	0	7.19764e-05
1388.41	0.00864965	-0.0175566	0	5.28859e-05
1408.41	0.00857329	-0.0174618	0	-4.38561e-06
1428.41	0.00857329	-0.0172894	0	-6.16571e-05
1448.41	0.00861147	-0.0171717	0	3.37954e-05
1468.41	0.00868784	-0.017019	0	-8.07476e-05
1488.41	0.00861147	-0.0166442	0	9.10669e-05
1508.41	0.0087642	-0.0168962	0	-4.38561e-06
1528.41	0.00868784	-0.0168294	0	9.10669e-05
1548.41	0.00857329	-0.0168097	0	9.10669e-05
1568.41	0.00866874	-0.016699	0	1.47049e-05
1588.41	0.00861147	-0.0165214	0	-4.38561e-06
1608.41	0.00864965	-0.0165113	0	5.28859e-05
1628.41	0.00870693	-0.0164114	0	5.28859e-05
1648.41	0.00861147	-0.0161989	0	-4.25666e-05
1668.41	0.00870693	-0.0161359	0	-9.98381e-05
1688.41	0.00863056	-0.0160614	0	3.37954e-05
1708.41	0.00866874	-0.0159246	0	5.28859e-05
1728.41	0.00866874	-0.015903	0	-2.34761e-05
1748.41	0.00859238	-0.0155034	0	1.47049e-05
1768.41	0.00870693	-0.015597	0	-2.34761e-05
1788.41	0.00868784	-0.0155314	0	1.47049e-05
1808.41	0.00874511	-0.0153425	0	-8.07476e-05
1828.41	0.00878329	-0.0152585	0	1.47049e-05
1848.41	0.00870693	-0.0152044	0	9.10669e-05
1860.05	0.00872602	-0.0150345	0	3.37954e-05