File: EXPERIMENTAL/DATA/Electrochemical-cycling/S-series/2024-07-02_S21_Icell_t1800_C0000_J01_deltaX-110,1mm_plating-stripping_05_MB_C03.txt
time/s	Ewe/V	I/mA	error	Ece/V
1896.36	-0.0567518	0.194833	0	-0.000563973
1896.75	-0.00596233	0.196039	0	0.000220731
1899.28	0.0394462	0.196037	0	-4.64685e-05
1924.92	0.0848166	0.196033	0	-2.73828e-05
1926.66	0.130664	0.196032	0	-8.29709e-06
1928.11	0.175996	0.196035	0	6.80457e-05
1930.3	0.2215	0.196045	0	0.000201646
1930.97	0.267462	0.196031	0	2.98743e-05
1931.28	0.313902	0.196032	0	2.98743e-05
1931.44	0.36099	0.196038	0	0.000125303
1931.56	0.407963	0.196031	0	2.98743e-05
1931.66	0.455472	0.196032	0	0.000125303
1931.75	0.502121	0.196038	0	0.000106217
1931.84	0.549877	0.196028	0	0.00018256
1931.93	0.59811	0.196037	0	-6.55542e-05
1932.02	0.645943	0.196043	0	4.896e-05
1932.1	0.693967	0.196034	0	6.80457e-05
1932.18	0.741036	0.196029	0	4.896e-05
1932.26	0.789155	0.196035	0	0.000106217
1932.33	0.837331	0.196035	0	2.98743e-05
1932.41	0.885202	0.196034	0	4.896e-05
1932.49	0.933779	0.196039	0	-8.29709e-06
1932.57	0.98163	0.196039	0	-8.29709e-06
1968.89	-0.0227018	0.196033	0	0.000144388
1969.93	0.0229548	0.196032	0	6.80457e-05
1995.25	0.0683443	0.196034	0	-8.29709e-06
1999.09	0.113867	0.196038	0	8.71314e-05
2000.12	0.159658	0.196038	0	4.896e-05
2000.71	0.205734	0.196039	0	6.80457e-05
2001	0.252116	0.196036	0	-8.29709e-06
2001.17	0.298174	0.196028	0	-8.29709e-06
2001.29	0.345586	0.196039	0	-4.64685e-05
2001.39	0.392617	0.196031	0	-2.73828e-05
2001.47	0.441022	0.196041	0	0.000106217
2001.55	0.489466	0.196034	0	-8.29709e-06
2001.63	0.537203	0.19603	0	-2.73828e-05
2001.71	0.586086	0.196035	0	-8.29709e-06
2001.78	0.634262	0.196036	0	2.98743e-05
2001.85	0.682247	0.196032	0	1.07886e-05
2001.92	0.732141	0.196037	0	2.98743e-05
2001.99	0.780451	0.196039	0	6.80457e-05
2002.05	0.829085	0.196046	0	1.07886e-05
2002.12	0.877872	0.196027	0	-8.29709e-06
2002.19	0.927174	0.196031	0	8.71314e-05
2002.26	0.976458	0.196036	0	-8.29709e-06
2038.55	-0.026462	0.196026	0	1.07886e-05
2039.44	0.0191374	0.196041	0	0.000106217
2061.04	0.064565	0.196034	0	1.07886e-05
2067.33	0.109764	0.196045	0	-8.46399e-05
2067.94	0.155668	0.196031	0	-8.29709e-06
2068.33	0.201974	0.196036	0	-8.46399e-05
2068.63	0.248413	0.196028	0	-6.55542e-05
2068.84	0.29533	0.196027	0	0.000144388
2068.98	0.342132	0.196031	0	-4.64685e-05
2069.08	0.389392	0.196028	0	0.000106217
2069.18	0.437434	0.196039	0	1.07886e-05
2069.26	0.484599	0.196034	0	4.896e-05
2069.33	0.532336	0.196039	0	1.07886e-05
2069.41	0.579901	0.196039	0	0.000163474
2069.48	0.628669	0.196033	0	4.896e-05
2069.55	0.676807	0.196039	0	-2.73828e-05
2069.62	0.724831	0.196031	0	2.98743e-05
2069.69	0.773732	0.19603	0	0.000144388
2069.76	0.821889	0.19602	0	4.896e-05
2069.82	0.870294	0.196038	0	-0.000122811
2069.89	0.919921	0.196035	0	0.000125303
2069.96	0.968613	0.196041	0	0.000125303
2106.22	-0.0375135	0.196035	0	8.71314e-05
2106.82	0.00869667	0.196029	0	6.80457e-05
2112.47	0.0539907	0.196035	0	1.07886e-05
2132.33	0.0992274	0.196032	0	-2.73828e-05
2133.09	0.14559	0.196036	0	4.896e-05
2133.44	0.191915	0.196047	0	-4.64685e-05
2133.76	0.238755	0.196032	0	-6.55542e-05
2134.01	0.285347	0.196035	0	4.896e-05
2134.19	0.332836	0.19604	0	6.80457e-05
2134.32	0.380325	0.196035	0	6.80457e-05
2134.42	0.429093	0.196039	0	0.000144388
2134.52	0.476067	0.196035	0	2.98743e-05
2134.6	0.523594	0.196027	0	0.000144388
2134.68	0.571331	0.196034	0	0.000163474
2134.76	0.618915	0.196034	0	0.000125303
2134.83	0.666424	0.196029	0	1.07886e-05
2134.9	0.714695	0.196036	0	0.000106217
2134.97	0.763005	0.196038	0	2.98743e-05
2135.03	0.81162	0.196028	0	-8.29709e-06
2135.1	0.860407	0.196029	0	0.000106217
2135.17	0.908717	0.196036	0	-8.29709e-06
2135.24	0.957618	0.196038	0	4.896e-05
2171.5	-0.0509891	0.196031	0	0.000125303
2171.87	-0.00258389	0.196035	0	1.07886e-05
2174.6	0.0429773	0.196037	0	4.896e-05
2194.73	0.0880423	0.196036	0	1.07886e-05
2196.14	0.133699	0.196034	0	6.80457e-05
2196.54	0.179871	0.196041	0	2.98743e-05
2196.88	0.226043	0.196036	0	2.98743e-05
2197.18	0.272215	0.196035	0	0.000106217
2197.41	0.318941	0.196036	0	0.000125303
2197.58	0.36559	0.196039	0	8.71314e-05
2197.72	0.412888	0.196035	0	4.896e-05
2197.83	0.459938	0.196038	0	-6.55542e-05
2197.93	0.50758	0.196034	0	1.07886e-05
2198.02	0.555622	0.196031	0	1.07886e-05
2198.11	0.603627	0.196032	0	6.80457e-05
2198.19	0.652089	0.196039	0	0.000163474
2198.26	0.699731	0.196038	0	2.98743e-05
2198.33	0.746991	0.196036	0	-0.000103726
2198.4	0.794881	0.196035	0	-4.64685e-05
2198.47	0.844565	0.196038	0	-8.29709e-06
2198.54	0.893943	0.196033	0	-8.29709e-06
2198.61	0.94275	0.196035	0	8.71314e-05
2198.68	0.991346	0.196032	0	6.80457e-05
2235.05	-0.0173765	0.196036	0	2.98743e-05
2236.51	0.0284138	0.196039	0	4.896e-05
2253.37	0.0738032	0.196034	0	0.000163474
2257.7	0.119231	0.196041	0	0.000106217
2258.27	0.16483	0.196032	0	2.98743e-05
2258.68	0.210735	0.196034	0	0.000106217
2259.06	0.256754	0.196039	0	1.07886e-05
2259.37	0.303003	0.196036	0	-8.29709e-06
2259.61	0.349576	0.196032	0	6.80457e-05
2259.79	0.396187	0.196036	0	6.80457e-05
2259.93	0.443714	0.196035	0	-6.55542e-05
2260.05	0.490611	0.196038	0	0.000125303
2260.15	0.537833	0.196032	0	2.98743e-05
2260.24	0.586047	0.196036	0	0.00018256
2260.33	0.633975	0.196033	0	0.000163474
2260.41	0.682361	0.196031	0	4.896e-05
2260.48	0.730366	0.196031	0	-8.29709e-06
2260.55	0.778065	0.196028	0	-2.73828e-05
2260.62	0.826298	0.196044	0	8.71314e-05
2260.69	0.873673	0.196038	0	-4.64685e-05
2260.76	0.921448	0.196035	0	8.71314e-05
2260.83	0.970006	0.196031	0	1.07886e-05
2297.09	-0.0389832	0.196039	0	8.71314e-05
2297.69	0.00732239	0.196038	0	0.000106217
2301.92	0.0529218	0.196031	0	8.71314e-05
2317.44	0.0982158	0.196025	0	0.000125303
2318.81	0.143529	0.196039	0	1.07886e-05
2319.39	0.189758	0.196034	0	-2.73828e-05
2319.91	0.236388	0.196034	0	1.07886e-05
2320.34	0.28235	0.196032	0	6.80457e-05
2320.67	0.328694	0.196036	0	-2.73828e-05
2320.91	0.375534	0.196032	0	6.80457e-05
2321.09	0.422947	0.196039	0	8.71314e-05
2321.23	0.470646	0.196032	0	1.07886e-05
2321.35	0.517524	0.196035	0	4.896e-05
2321.45	0.564651	0.196038	0	0.000125303
2321.54	0.61235	0.196039	0	8.71314e-05
2321.62	0.660888	0.196032	0	-2.73828e-05
2321.7	0.708606	0.196029	0	6.80457e-05
2321.78	0.75684	0.196036	0	0.000125303
2321.85	0.805226	0.196032	0	1.07886e-05
2321.92	0.853307	0.196039	0	2.98743e-05
2321.99	0.901617	0.196032	0	0.000125303
2322.06	0.949354	0.196036	0	8.71314e-05
2322.14	0.998236	0.196037	0	-2.73828e-05
2358.55	-0.0122039	0.196031	0	2.98743e-05
2360.38	0.0335101	0.196037	0	2.98743e-05
2374.47	0.0788995	0.196034	0	1.07886e-05
2378.88	0.124079	0.196038	0	8.71314e-05
2379.79	0.169946	0.196033	0	2.98743e-05
2380.45	0.215793	0.196031	0	-4.64685e-05
2381.03	0.261889	0.196032	0	0.000106217
2381.45	0.307717	0.196029	0	4.896e-05
2381.76	0.353927	0.196032	0	1.07886e-05
2381.98	0.400653	0.196035	0	4.896e-05
2382.14	0.447608	0.196031	0	8.71314e-05
2382.27	0.495154	0.196036	0	6.80457e-05
2382.38	0.542662	0.196036	0	2.98743e-05
2382.48	0.590895	0.196034	0	8.71314e-05
2382.57	0.639282	0.196036	0	1.07886e-05
2382.65	0.688259	0.196039	0	2.98743e-05
2382.73	0.736703	0.196034	0	6.80457e-05
2382.81	0.785184	0.196027	0	-4.64685e-05
2382.88	0.833418	0.196038	0	1.07886e-05
2382.95	0.881785	0.196031	0	8.71314e-05
2383.02	0.929751	0.196041	0	8.71314e-05
2383.1	0.977965	0.196043	0	0.000125303
2419.35	-0.033467	0.196032	0	-2.73828e-05
2420.07	0.0121324	0.196034	0	2.98743e-05
2425.12	0.0573119	0.196032	0	0.00018256
2437.49	0.102453	0.196034	0	4.896e-05
2439.32	0.147957	0.196034	0	0.000125303
2440.26	0.193843	0.196038	0	1.07886e-05
2440.96	0.239958	0.19603	0	4.896e-05
2441.48	0.285862	0.196037	0	0.000125303
2441.87	0.331958	0.196034	0	4.896e-05
2442.14	0.378607	0.196039	0	1.07886e-05
2442.34	0.425314	0.196037	0	0.000106217
2442.49	0.472345	0.196034	0	2.98743e-05
2442.61	0.519452	0.196038	0	6.80457e-05
2442.72	0.566979	0.196041	0	-8.29709e-06
2442.81	0.614678	0.196032	0	0.000125303
2442.9	0.662072	0.196043	0	-0.000160983
2442.99	0.710267	0.196029	0	6.80457e-05
2443.07	0.757985	0.196038	0	2.98743e-05
2443.14	0.805111	0.196043	0	1.07886e-05
2443.22	0.854395	0.196034	0	1.07886e-05
2443.29	0.903029	0.196045	0	4.896e-05
2443.37	0.951052	0.196032	0	4.896e-05
2443.44	0.998942	0.196029	0	-8.29709e-06
2479.85	-0.0105242	0.196033	0	-2.73828e-05
2481.88	0.0353997	0.196034	0	4.896e-05
2493.37	0.0805219	0.196026	0	8.71314e-05
2498.37	0.125988	0.196041	0	8.71314e-05
2499.78	0.171282	0.196043	0	8.71314e-05
2500.68	0.216862	0.196036	0	0.000144388
2501.33	0.262481	0.19603	0	-4.64685e-05
2501.77	0.308233	0.196039	0	4.896e-05
2502.09	0.354767	0.196043	0	-4.64685e-05
2502.32	0.401187	0.196036	0	0.000106217
2502.5	0.447989	0.196041	0	-8.46399e-05
2502.64	0.495326	0.196036	0	4.896e-05
2502.76	0.542967	0.196037	0	1.07886e-05
2502.86	0.590247	0.196039	0	8.71314e-05
2502.96	0.637716	0.196034	0	6.80457e-05
2503.05	0.685797	0.196038	0	-8.29709e-06
2503.13	0.733248	0.19604	0	-2.73828e-05
2503.21	0.781978	0.196037	0	1.07886e-05
2503.29	0.829161	0.196036	0	0.000106217
2503.37	0.877929	0.196038	0	-8.29709e-06
2503.44	0.925915	0.196032	0	0.000125303
2503.52	0.974797	0.196036	0	0.00018256
2539.78	-0.0343641	0.196031	0	8.71314e-05
2540.47	0.011827	0.196031	0	-0.000103726
2545.52	0.0575791	0.196043	0	8.71314e-05
2556.01	0.102606	0.19604	0	4.896e-05
2558.53	0.1479	0.196032	0	0.000163474
2559.79	0.193843	0.19604	0	4.896e-05
2560.6	0.23929	0.196035	0	1.07886e-05
2561.14	0.285442	0.196036	0	-4.64685e-05
2561.53	0.332073	0.196034	0	2.98743e-05
2561.8	0.378378	0.196039	0	-2.73828e-05
2562.01	0.424741	0.196044	0	-8.29709e-06
2562.17	0.471829	0.196037	0	-8.29709e-06
2562.3	0.518975	0.196045	0	2.98743e-05
2562.42	0.566769	0.196038	0	-2.73828e-05
2562.52	0.613934	0.196041	0	-2.73828e-05
2562.62	0.661747	0.196034	0	0.000106217
2562.71	0.708874	0.196036	0	1.07886e-05
2562.8	0.757107	0.196031	0	1.07886e-05
2562.88	0.805131	0.196041	0	0.000106217
2562.96	0.853536	0.196035	0	2.98743e-05
2563.04	0.901139	0.196034	0	8.71314e-05
2563.11	0.947445	0.196034	0	6.80457e-05
2563.2	0.995201	0.196031	0	1.07886e-05
2563.2	1.0007	0.196036	0	2.98743e-05