File: EXPERIMENTAL/DATA/Electrochemical-cycling/S-series/2024-06-27_S19_Icell_t1800_C0010_J01_deltaX-109,9mm_02_MB_C06.txt
time/s	Ewe/V	I/mA	error	Ece/V
60.053	2.90223	-0.0250234	0	-0.000717916
60.1736	0.00929399	-13.0519	0	-1.35045e-05
60.1744	0.00935127	-12.9074	0	-1.35045e-05
60.1752	0.00938945	-12.7623	0	-7.07736e-05
60.176	0.00921763	-12.6286	0	-3.25942e-05
60.1768	0.00937036	-12.4815	0	5.58521e-06
60.1776	0.00935127	-12.3453	0	-5.16839e-05
60.1784	0.00931308	-12.2135	0	-0.000128043
60.1792	0.00938945	-12.0805	0	4.37646e-05
60.18	0.00938945	-11.9538	0	-0.000128043
60.1808	0.00931308	-11.8405	0	2.46749e-05
60.1816	0.00929399	-11.7074	0	4.37646e-05
60.1824	0.00940854	-11.6005	0	2.46749e-05
60.1834	0.00929399	-11.4426	0	-7.07736e-05
60.1842	0.00933218	-11.3287	0	0.000101034
60.185	0.00940854	-11.2173	0	-0.000185312
60.1858	0.00935127	-11.1065	0	-5.16839e-05
60.1868	0.00935127	-10.9734	0	-0.000108953
60.1876	0.00944673	-10.8601	0	-1.35045e-05
60.1886	0.00944673	-10.7373	0	-0.000108953
60.1898	0.00942764	-10.5883	0	5.58521e-06
60.191	0.00929399	-10.4457	0	-1.35045e-05
60.192	0.00933218	-10.3228	0	-0.000108953
60.1932	0.00931308	-10.1821	0	-8.98633e-05
60.1942	0.00929399	-10.0688	0	-0.000108953
60.1954	0.00935127	-9.93259	0	-0.000108953
60.1966	0.00937036	-9.804	0	-1.35045e-05
60.1978	0.00925581	-9.67731	0	-7.07736e-05
60.1988	0.00933218	-9.56527	0	-0.000128043
60.2	0.00940854	-9.44878	0	4.37646e-05
60.2012	0.00942764	-9.33291	0	-5.16839e-05
60.2024	0.00938945	-9.21578	0	-1.35045e-05
60.2038	0.00935127	-9.08273	0	2.46749e-05
60.205	0.00933218	-8.97642	0	-0.000147132
60.2064	0.00933218	-8.85801	0	-7.07736e-05
60.2078	0.00923672	-8.73578	0	-5.16839e-05
60.2094	0.00935127	-8.60146	0	-5.16839e-05
60.2108	0.00923672	-8.49578	0	-5.16839e-05
60.2124	0.00933218	-8.36528	0	2.46749e-05
60.214	0.00938945	-8.24178	0	-0.000128043
60.2156	0.00946582	-8.12656	0	6.28543e-05
60.217	0.00942764	-8.02088	0	-0.000128043
60.219	0.00946582	-7.88401	0	-5.16839e-05
60.2208	0.00929399	-7.77452	0	-7.07736e-05
60.2224	0.00935127	-7.66247	0	5.58521e-06
60.2242	0.00937036	-7.54789	0	2.46749e-05
60.226	0.00944673	-7.43648	0	-3.25942e-05
60.228	0.00935127	-7.32062	0	6.28543e-05
60.23	0.00940854	-7.2124	0	0.000101034
60.232	0.00933218	-7.10163	0	0.000120123
60.234	0.0092749	-6.9915	0	-7.07736e-05
60.2362	0.00935127	-6.88264	0	-3.25942e-05
60.2384	0.00937036	-6.77251	0	5.58521e-06
60.2408	0.00935127	-6.66174	0	-0.000128043
60.2432	0.00937036	-6.55797	0	-1.35045e-05
60.2454	0.00938945	-6.45421	0	5.58521e-06
60.2482	0.00937036	-6.33071	0	-0.000147132
60.2508	0.00940854	-6.22694	0	-0.000204402
60.2534	0.00933218	-6.11872	0	-0.000108953
60.2566	0.00938945	-6.00604	0	-7.07736e-05
60.2594	0.00938945	-5.90164	0	2.46749e-05
60.2626	0.00935127	-5.7896	0	-3.25942e-05
60.2658	0.00937036	-5.68647	0	-8.98633e-05
60.2694	0.00940854	-5.56615	0	-5.16839e-05
60.2732	0.00944673	-5.44965	0	-3.25942e-05
60.2772	0.00929399	-5.33506	0	-3.25942e-05
60.2812	0.00935127	-5.22429	0	-0.000108953
60.285	0.00929399	-5.12244	0	-8.98633e-05
60.289	0.00937036	-5.01613	0	-0.000108953
60.2938	0.00935127	-4.90599	0	-7.07736e-05
60.2986	0.0092749	-4.79777	0	0.000120123
60.3034	0.00935127	-4.6921	0	-0.000128043
60.3082	0.0092749	-4.59088	0	-0.000204402
60.3132	0.00937036	-4.4852	0	-0.000147132
60.319	0.00925581	-4.37952	0	-8.98633e-05
60.325	0.00931308	-4.26812	0	-5.16839e-05
60.3312	0.00937036	-4.16563	0	-7.07736e-05
60.3376	0.0092749	-4.05358	0	-1.35045e-05
60.345	0.00933218	-3.94982	0	0.000101034
60.352	0.00938945	-3.84351	0	2.46749e-05
60.3602	0.00938945	-3.73465	0	-0.000185312
60.3686	0.00942764	-3.62834	0	5.58521e-06
60.3732	0.00933218	-3.63767	0	-0.000108953
60.4086	0.00935127	-3.22921	0	5.58521e-06
60.4198	0.00933218	-3.12699	0	-8.98633e-05
60.4318	0.00931308	-3.02591	0	-8.98633e-05
60.4446	0.00929399	-2.92305	0	-0.000128043
60.4584	0.00931308	-2.82133	0	-7.07736e-05
60.4734	0.00925581	-2.72045	0	-7.07736e-05
60.4894	0.0092749	-2.6186	0	-3.25942e-05
60.507	0.00935127	-2.51733	0	-0.000108953
60.526	0.00938945	-2.41632	0	-1.35045e-05
60.547	0.00929399	-2.31454	0	-7.07736e-05
60.5698	0.0092749	-2.21403	0	-3.25942e-05
60.595	0.00923672	-2.11384	0	4.37646e-05
60.6228	0.00944673	-2.0134	0	4.37646e-05
60.6538	0.00942764	-1.9129	0	2.46749e-05
60.6892	0.00946582	-1.81271	0	6.28543e-05
60.7298	0.00937036	-1.7108	0	8.1944e-05
60.7754	0.00933218	-1.61042	0	-0.000128043
60.8288	0.0092749	-1.50922	0	-3.25942e-05
60.891	0.0092749	-1.40909	0	-5.16839e-05
60.965	0.00933218	-1.30814	0	-0.000128043
61.0546	0.00940854	-1.2077	0	5.58521e-06
61.166	0.00923672	-1.10675	0	-0.000128043
61.3066	0.00942764	-1.00611	0	-8.98633e-05
61.4916	0.00937036	-0.905862	0	6.28543e-05
61.7448	0.00933218	-0.805547	0	-5.16839e-05
62.113	0.00944673	-0.704341	0	4.37646e-05
62.6882	0.00937036	-0.60409	0	-8.98633e-05
63.654	0.00931308	-0.503902	0	-5.16839e-05
65.523	0.00937036	-0.403505	0	-0.000108953
69.3004	0.00944673	-0.303406	0	8.1944e-05
78.7174	0.00933218	-0.203345	0	-7.07736e-05
98.7174	0.00938945	-0.129805	0	-0.000223491
118.717	0.00937036	-0.100262	0	-0.000128043
138.717	0.00929399	-0.0828295	0	-7.07736e-05
158.717	0.00931308	-0.0708645	0	-1.35045e-05
178.717	0.00946582	-0.0623553	0	-3.25942e-05
198.717	0.00933218	-0.0558318	0	-5.16839e-05
218.717	0.00935127	-0.0504348	0	-1.35045e-05
238.717	0.00935127	-0.0459289	0	0.000101034
258.717	0.00942764	-0.0418193	0	-8.98633e-05
278.717	0.00933218	-0.0385743	0	5.58521e-06
298.717	0.00940854	-0.0352065	0	-0.000108953
318.717	0.00937036	-0.0322739	0	2.46749e-05
338.717	0.00933218	-0.0295755	0	-1.35045e-05
358.717	0.00938945	-0.0271284	0	4.37646e-05
378.717	0.00935127	-0.0248506	0	-1.35045e-05
398.717	0.00935127	-0.0229335	0	-5.16839e-05
418.717	0.00931308	-0.0211252	0	-1.35045e-05
438.717	0.00940854	-0.0195981	0	0.000101034
458.717	0.00933218	-0.0181214	0	8.1944e-05
478.717	0.00931308	-0.0167515	0	-3.25942e-05
498.717	0.00929399	-0.015708	0	-3.25942e-05
518.717	0.00931308	-0.0146098	0	-1.35045e-05
538.717	0.00940854	-0.0136318	0	4.37646e-05
558.717	0.00917944	-0.0128511	0	-7.07736e-05
578.717	0.00933218	-0.0119845	0	2.46749e-05
598.717	0.00929399	-0.011284	0	2.46749e-05
618.717	0.00940854	-0.0107336	0	5.58521e-06
638.717	0.00929399	-0.0102049	0	-3.25942e-05
658.717	0.00942764	-0.00963032	0	-1.35045e-05
678.717	0.00929399	-0.0091073	0	-1.35045e-05
698.717	0.00937036	-0.00852384	0	2.46749e-05
718.717	0.00946582	-0.00816498	0	-7.07736e-05
738.717	0.00938945	-0.00782967	0	0.000101034
758.717	0.00933218	-0.00754017	0	-5.16839e-05
778.717	0.00937036	-0.00716349	0	-1.35045e-05
798.717	0.00937036	-0.00685236	0	-3.25942e-05
818.717	0.00944673	-0.00649604	0	0.000101034
838.717	0.00931308	-0.00619509	0	8.1944e-05
858.717	0.00942764	-0.00601948	0	-3.25942e-05
878.717	0.00931308	-0.00576815	0	5.58521e-06
898.717	0.00938945	-0.00544556	0	8.1944e-05
918.717	0.00933218	-0.00535076	0	-5.16839e-05
938.717	0.0092749	-0.00517769	0	5.58521e-06
958.717	0.00933218	-0.00496327	0	-7.07736e-05
978.717	0.00942764	-0.00486655	0	-0.000108953
998.717	0.00933218	-0.0045955	0	-0.000128043
1018.72	0.0092749	-0.00451301	0	-5.16839e-05
1038.72	0.00935127	-0.0043628	0	-7.07736e-05
1058.72	0.00925581	-0.00420979	0	0.000139213
1078.72	0.00937036	-0.00407313	0	-5.16839e-05
1098.72	0.00929399	-0.00393342	0	-7.07736e-05
1118.72	0.00931308	-0.00385163	0	2.46749e-05
1138.72	0.00935127	-0.00374991	0	-3.25942e-05
1158.72	0.0092749	-0.00364101	0	-3.25942e-05
1178.72	0.00931308	-0.00352816	0	-7.07736e-05
1198.72	0.00940854	-0.00344051	0	-8.98633e-05
1218.72	0.00931308	-0.00337622	0	-8.98633e-05
1238.72	0.00935127	-0.00326401	0	-1.35045e-05
1258.72	0.00937036	-0.00318687	0	2.46749e-05
1278.72	0.00938945	-0.00312824	0	-5.16839e-05
1298.72	0.00931308	-0.00302087	0	2.46749e-05
1318.72	0.00933218	-0.00295512	0	-0.000108953
1338.72	0.00940854	-0.00289325	0	2.46749e-05
1358.72	0.00940854	-0.00288542	0	-5.16839e-05
1378.72	0.00931308	-0.0027753	0	2.46749e-05
1398.72	0.00940854	-0.00270841	0	-5.16839e-05
1418.72	0.00933218	-0.00263266	0	-7.07736e-05
1438.72	0.00929399	-0.00258168	0	-0.000128043
1458.72	0.00935127	-0.00254546	0	4.37646e-05
1478.72	0.00933218	-0.00253687	0	4.37646e-05
1498.72	0.00933218	-0.00245317	0	-0.000147132
1518.72	0.00935127	-0.00241435	0	-7.07736e-05
1538.72	0.00931308	-0.00237545	0	-0.000108953
1558.72	0.00933218	-0.00231569	0	5.58521e-06
1578.72	0.00929399	-0.00226916	0	-1.35045e-05
1598.72	0.00938945	-0.00224478	0	-0.000128043
1618.72	0.00935127	-0.00217769	0	-0.000108953
1638.72	0.00931308	-0.00213288	0	-1.35045e-05
1658.72	0.00931308	-0.0021129	0	5.58521e-06
1678.72	0.00929399	-0.00206592	0	-0.000166222
1698.72	0.00929399	-0.00204683	0	-3.25942e-05
1718.72	0.00933218	-0.00200527	0	-7.07736e-05
1738.72	0.00937036	-0.00200183	0	-7.07736e-05
1758.72	0.00929399	-0.00195403	0	-1.35045e-05
1778.72	0.00935127	-0.00195155	0	5.58521e-06
1798.72	0.00931308	-0.0018611	0	2.46749e-05
1818.72	0.00940854	-0.00186772	0	-0.000128043
1838.72	0.00933218	-0.00184729	0	-8.98633e-05
1858.72	0.00937036	-0.00181483	0	0.000101034
1860.05	0.00944673	-0.00180891	0	-3.25942e-05