File: EXPERIMENTAL/DATA/Electrochemical-cycling/S-series/2024-06-19_S07_Icell_t1800_C0003_J01_02_MB_C09.txt
time/s	Ewe/V	I/mA	error	Ece/V
60.053	2.8316	-0.025008	0	-0.00158786
60.1438	0.00835245	-5.10104	0	-5.1858e-05
60.145	0.00835245	-4.96684	0	-5.1858e-05
60.1462	0.00835245	-4.84007	0	6.26537e-05
60.1474	0.00837153	-4.72043	0	2.44831e-05
60.1486	0.00837153	-4.60663	0	0.00011991
60.1498	0.00837153	-4.49919	0	0.000100824
60.151	0.0084288	-4.3969	0	4.35684e-05
60.1526	0.00829519	-4.26784	0	2.44831e-05
60.1542	0.00831427	-4.14813	0	-3.27727e-05
60.1558	0.00848606	-4.03395	0	-1.36875e-05
60.1574	0.00833336	-3.92823	0	-5.1858e-05
60.1592	0.00839062	-3.81526	0	5.39784e-06
60.1612	0.00833336	-3.69924	0	4.35684e-05
60.1632	0.00837153	-3.59097	0	-9.00286e-05
60.1652	0.0082761	-3.48938	0	4.35684e-05
60.1676	0.00837153	-3.37679	0	2.44831e-05
60.17	0.00848606	-3.27265	0	4.35684e-05
60.1728	0.00837153	-3.16038	0	6.26537e-05
60.1756	0.00835245	-3.05752	0	-5.1858e-05
60.1788	0.00837153	-2.94963	0	-7.09433e-05
60.1824	0.00831427	-2.8401	0	6.26537e-05
60.1862	0.00833336	-2.73406	0	4.35684e-05
60.1904	0.0084288	-2.62859	0	0.000177165
60.195	0.0084288	-2.52502	0	2.44831e-05
60.2	0.0084288	-2.4221	0	6.26537e-05
60.2056	0.00829519	-2.3193	0	-1.36875e-05
60.2118	0.00833336	-2.21726	0	-5.1858e-05
60.2186	0.0082761	-2.11561	0	8.1739e-05
60.2264	0.0084288	-2.01128	0	4.35684e-05
60.235	0.00840971	-1.90925	0	-3.27727e-05
60.2444	0.00848606	-1.8081	0	0.000138995
60.2552	0.00844788	-1.70676	0	5.39784e-06
60.2672	0.00829519	-1.60479	0	6.26537e-05
60.281	0.00835245	-1.50301	0	5.39784e-06
60.2964	0.00831427	-1.40174	0	5.39784e-06
60.3142	0.00829519	-1.29976	0	8.1739e-05
60.3348	0.00837153	-1.19868	0	2.44831e-05
60.3586	0.00825701	-1.09728	0	0.000100824
60.3864	0.00839062	-0.996959	0	-1.36875e-05
60.42	0.00844788	-0.895877	0	8.1739e-05
60.4608	0.00839062	-0.795748	0	0.000100824
60.5126	0.0084288	-0.694856	0	-3.27727e-05
60.5806	0.00829519	-0.59371	0	5.39784e-06
60.6736	0.00844788	-0.492818	0	4.35684e-05
60.8172	0.00837153	-0.392716	0	8.1739e-05
61.042	0.00840971	-0.292492	0	4.35684e-05
61.4818	0.00852423	-0.192371	0	0.000100824
62.7814	0.00844788	-0.0921987	0	0.00011991
75.6746	0.0084288	-0.0141035	0	4.35684e-05
95.6746	0.00844788	-0.00570194	0	0.00011991
115.675	0.00848606	-0.00355083	0	6.26537e-05
135.675	0.00850514	-0.00258097	0	4.35684e-05
155.675	0.0084288	-0.00204854	0	0.000100824
175.675	0.00850514	-0.00172858	0	2.44831e-05
195.675	0.00840971	-0.00152151	0	8.1739e-05
215.675	0.00833336	-0.00134467	0	-9.00286e-05
235.675	0.0084288	-0.00121517	0	0.000138995
255.675	0.00844788	-0.00112334	0	4.35684e-05
275.675	0.00848606	-0.00104005	0	4.35684e-05
295.675	0.00846697	-0.000961837	0	5.39784e-06
315.675	0.0084288	-0.000906284	0	4.35684e-05
335.675	0.00831427	-0.000865239	0	0.000138995
355.675	0.00840971	-0.000819295	0	6.26537e-05
375.675	0.00839062	-0.000798422	0	2.44831e-05
395.675	0.00844788	-0.000767814	0	8.1739e-05
415.675	0.00839062	-0.000737014	0	4.35684e-05
435.675	0.0084288	-0.000717478	0	-5.1858e-05
455.675	0.00846697	-0.000684324	0	4.35684e-05
475.675	0.00839062	-0.000674715	0	-1.36875e-05
495.675	0.0085624	-0.000666252	0	-1.36875e-05
515.675	0.00840971	-0.00062648	0	6.26537e-05
535.675	0.00844788	-0.000608853	0	6.26537e-05
555.675	0.00846697	-0.000592308	0	-1.36875e-05
575.675	0.00846697	-0.000573536	0	5.39784e-06
595.675	0.0084288	-0.000554763	0	6.26537e-05
615.675	0.0084288	-0.000575063	0	0.000100824
635.675	0.00844788	-0.000541336	0	8.1739e-05
655.675	0.00848606	-0.000543182	0	2.44831e-05
675.675	0.00844788	-0.000524537	0	6.26537e-05
695.675	0.00839062	-0.000515818	0	4.35684e-05
715.675	0.0084288	-0.000520655	0	-5.1858e-05
735.675	0.00846697	-0.000476365	0	4.35684e-05
755.675	0.00844788	-0.000488583	0	0.000177165
775.675	0.00846697	-0.000498128	0	6.26537e-05
795.675	0.0084288	-0.000489601	0	6.26537e-05
815.675	0.00833336	-0.000482792	0	-1.36875e-05
835.675	0.00846697	-0.000459883	0	4.35684e-05
855.675	0.0084288	-0.000468983	0	2.44831e-05
875.675	0.0084288	-0.000473883	0	0.000100824
895.675	0.00846697	-0.000448938	0	-5.1858e-05
915.675	0.00837153	-0.000437738	0	2.44831e-05
935.675	0.00844788	-0.000429147	0	4.35684e-05
955.675	0.00846697	-0.000428511	0	5.39784e-06
975.675	0.00844788	-0.000421257	0	6.26537e-05
995.675	0.0084288	-0.000406748	0	6.26537e-05
1015.67	0.0084288	-0.000409166	0	-1.36875e-05
1035.67	0.00844788	-0.000412984	0	8.1739e-05
1055.67	0.00846697	-0.000412539	0	0.00011991
1075.67	0.00840971	-0.000409102	0	6.26537e-05
1095.67	0.0084288	-0.000408402	0	-9.00286e-05
1115.67	0.00844788	-0.000377157	0	0.000100824
1135.67	0.0084288	-0.000393957	0	0.000138995
1155.67	0.00837153	-0.000384412	0	8.1739e-05
1175.67	0.00850514	-0.000356158	0	6.26537e-05
1195.67	0.00848606	-0.000361249	0	4.35684e-05
1215.67	0.00844788	-0.000375694	0	-3.27727e-05
1235.67	0.0084288	-0.000359721	0	6.26537e-05
1255.67	0.00846697	-0.000384221	0	-9.00286e-05
1275.67	0.00854332	-0.000353803	0	0.00011991
1295.67	0.00835245	-0.000369267	0	-5.1858e-05
1315.67	0.0084288	-0.000511873	0	6.26537e-05
1335.67	0.0084288	-0.000340249	0	6.26537e-05
1355.67	0.00844788	-0.000349158	0	-1.36875e-05
1375.67	0.00844788	-0.000340058	0	2.44831e-05
1395.67	0.0084288	-0.000360421	0	0.000138995
1415.67	0.00850514	-0.000339104	0	-7.09433e-05
1435.67	0.00844788	-0.000336558	0	-3.27727e-05
1455.67	0.00833336	-0.000330958	0	-3.27727e-05
1475.67	0.00839062	-0.00031664	0	-7.09433e-05
1495.67	0.00839062	-0.000345467	0	-0.000109114
1515.67	0.00848606	-0.000355776	0	8.1739e-05
1535.67	0.0084288	-0.000324722	0	2.44831e-05
1555.67	0.00840971	-0.000318931	0	-5.1858e-05
1575.67	0.00850514	-0.000312313	0	2.44831e-05
1595.67	0.00844788	-0.000334395	0	0.00011991
1615.67	0.00839062	-0.000284886	0	5.39784e-06
1635.67	0.00839062	-0.000307541	0	4.35684e-05
1655.67	0.00840971	-0.000323704	0	0.000100824
1675.67	0.00840971	-0.000303532	0	4.35684e-05
1695.67	0.00848606	-0.000291441	0	-1.36875e-05
1715.67	0.00839062	-0.000298695	0	4.35684e-05
1735.67	0.00840971	-0.000303595	0	5.39784e-06
1755.67	0.00840971	-0.000275468	0	0.000234421
1775.67	0.00840971	-0.000304995	0	0.000138995
1795.67	0.00846697	-0.00024906	0	6.26537e-05
1815.67	0.00844788	-0.000292141	0	6.26537e-05
1835.67	0.00835245	-0.000282977	0	8.1739e-05
1855.67	0.00852423	-0.000290677	0	4.35684e-05
1860.05	0.00839062	-0.00027935	0	-1.36875e-05