File: EXPERIMENTAL/DATA/Electrochemical-cycling/S-series/2024-06-25_S13_Icell_t0030_C0010_J01_deltaX-110,3mm_04_CP_C06.txt
time/s	Ewe/V	I/mA	error
120.206	0.0124423	-0.194791	0
120.206	0.00955546	-0.195987	0
120.206	0.00747977	-0.195989	0
120.206	0.0062388	-0.195987	0
120.207	0.00501692	-0.195989	0
120.207	0.00390959	-0.195989	0
120.207	0.00179038	-0.195992	0
120.208	-4.24375e-05	-0.195987	0
120.208	-0.00181798	-0.195994	0
120.208	-0.00292531	-0.195989	0
120.209	-0.00479632	-0.195992	0
120.209	-0.00634276	-0.195993	0
120.209	-0.00804194	-0.195996	0
120.21	-0.00974112	-0.195991	0
120.21	-0.0113639	-0.19599	0
120.211	-0.0128722	-0.195992	0
120.211	-0.0145332	-0.195989	0
120.211	-0.0160033	-0.195986	0
120.212	-0.017607	-0.195987	0
120.212	-0.0190198	-0.195997	0
120.213	-0.0204326	-0.19599	0
120.213	-0.0220172	-0.195993	0
120.213	-0.02322	-0.195985	0
120.214	-0.024671	-0.19599	0
120.214	-0.0261411	-0.195992	0
120.215	-0.0275157	-0.195989	0
120.215	-0.0287376	-0.195992	0
120.215	-0.0300358	-0.195992	0
120.216	-0.0313913	-0.195991	0
120.216	-0.0327659	-0.195993	0
120.217	-0.0340451	-0.195994	0
120.217	-0.035267	-0.195992	0
120.217	-0.0362979	-0.195988	0
120.218	-0.0376535	-0.19599	0
120.218	-0.0389135	-0.195986	0
120.219	-0.04004	-0.195992	0
120.219	-0.0414146	-0.195993	0
120.219	-0.0424646	-0.195989	0
120.22	-0.043572	-0.195991	0
120.22	-0.0447747	-0.195985	0
120.221	-0.0457866	-0.19599	0
120.221	-0.0470085	-0.195996	0
120.221	-0.0481349	-0.195998	0
120.222	-0.0492995	-0.195988	0
120.222	-0.0503496	-0.19599	0
120.223	-0.0518578	-0.195988	0
120.223	-0.0529461	-0.195997	0
120.224	-0.0545116	-0.195988	0
120.224	-0.0555426	-0.195989	0
120.225	-0.0569172	-0.195994	0
120.225	-0.0580436	-0.195988	0
120.226	-0.0590555	-0.19599	0
120.226	-0.0605256	-0.195994	0
120.227	-0.0619193	-0.195995	0
120.227	-0.0629693	-0.195989	0
120.228	-0.0643058	-0.195996	0
120.228	-0.0656231	-0.195989	0
120.229	-0.0670741	-0.195992	0
120.23	-0.0683723	-0.195989	0
120.23	-0.0696897	-0.195994	0
120.231	-0.0708925	-0.195987	0
120.231	-0.0721716	-0.195989	0
120.232	-0.0735462	-0.195998	0
120.233	-0.0746536	-0.195991	0
120.233	-0.0758754	-0.195996	0
120.234	-0.0770782	-0.195988	0
120.234	-0.0783192	-0.195987	0
120.235	-0.0795029	-0.195994	0
120.236	-0.0805721	-0.195992	0
120.236	-0.0816794	-0.195996	0
120.237	-0.0828822	-0.195989	0
120.238	-0.0841995	-0.195992	0
120.238	-0.0852496	-0.19599	0
120.239	-0.0866242	-0.195997	0
120.24	-0.0880179	-0.195991	0
120.241	-0.0893734	-0.19599	0
120.241	-0.0906717	-0.195992	0
120.242	-0.0917217	-0.19599	0
120.243	-0.0929627	-0.195994	0
120.244	-0.0941273	-0.195992	0
120.244	-0.0952155	-0.195991	0
120.245	-0.0962274	-0.195992	0
120.246	-0.0972584	-0.195996	0
120.246	-0.0983275	-0.195994	0
120.247	-0.0994348	-0.195992	0
120.248	-0.100599	-0.195987	0
120.249	-0.101707	-0.195992	0
120.25	-0.103005	-0.195995	0
120.251	-0.10417	-0.195999	0
120.252	-0.105201	-0.195994	0
120.252	-0.106289	-0.195994	0
120.253	-0.107587	-0.196	0
120.254	-0.108733	-0.195988	0
120.255	-0.109764	-0.195996	0
120.256	-0.111062	-0.195993	0
120.257	-0.112093	-0.195987	0
120.258	-0.113143	-0.195988	0
120.259	-0.114269	-0.195993	0
120.261	-0.11551	-0.19599	0
120.262	-0.116522	-0.195998	0
120.263	-0.117591	-0.195992	0
120.264	-0.118603	-0.195993	0
120.265	-0.11973	-0.19599	0
120.266	-0.12078	-0.195991	0
120.267	-0.121887	-0.195998	0
120.269	-0.122994	-0.19599	0
120.27	-0.124063	-0.195998	0
120.271	-0.125075	-0.195989	0
120.273	-0.126259	-0.19599	0
120.274	-0.127271	-0.195989	0
120.275	-0.12834	-0.195999	0
120.277	-0.129371	-0.195993	0
120.278	-0.130478	-0.195989	0
120.28	-0.131528	-0.195995	0
120.281	-0.132617	-0.195993	0
120.283	-0.133628	-0.195996	0
120.284	-0.134659	-0.195989	0
120.286	-0.135729	-0.195999	0
120.288	-0.136893	-0.195991	0
120.29	-0.137981	-0.195994	0
120.292	-0.139127	-0.19599	0
120.294	-0.140196	-0.195991	0
120.296	-0.141361	-0.19599	0
120.299	-0.142583	-0.195988	0
120.302	-0.143594	-0.195993	0
120.304	-0.144664	-0.195996	0
120.306	-0.145714	-0.195997	0
120.31	-0.146878	-0.19599	0
120.313	-0.14789	-0.195989	0
120.317	-0.148902	-0.195998	0
120.322	-0.14999	-0.195992	0
120.343	-0.14894	-0.195996	0
120.348	-0.147909	-0.19599	0
120.352	-0.146783	-0.195994	0
120.355	-0.145771	-0.195991	0
120.358	-0.14474	-0.195992	0
120.361	-0.14369	-0.195994	0
120.364	-0.14264	-0.195992	0
120.366	-0.14159	-0.195996	0
120.369	-0.140482	-0.195994	0
120.372	-0.139471	-0.195992	0
120.374	-0.138401	-0.195994	0
120.377	-0.137313	-0.195993	0
120.379	-0.136263	-0.195996	0
120.382	-0.135213	-0.195992	0
120.385	-0.134087	-0.195997	0
120.387	-0.133037	-0.195992	0
120.39	-0.131872	-0.195997	0
120.393	-0.130707	-0.195987	0
120.396	-0.129657	-0.195986	0
120.398	-0.128645	-0.19599	0
120.401	-0.127634	-0.195993	0
120.404	-0.126526	-0.195992	0
120.407	-0.125476	-0.195992	0
120.41	-0.12435	-0.195994	0
120.414	-0.123185	-0.195992	0
120.417	-0.122154	-0.195994	0
120.421	-0.121104	-0.195989	0
120.424	-0.120054	-0.195994	0
120.428	-0.118909	-0.195998	0
120.432	-0.117878	-0.195989	0
120.436	-0.11677	-0.195996	0
120.441	-0.11572	-0.195994	0
120.445	-0.114613	-0.195995	0
120.45	-0.113582	-0.195991	0
120.455	-0.112551	-0.195996	0
120.46	-0.11152	-0.19599	0
120.466	-0.110432	-0.195996	0
120.472	-0.109305	-0.195992	0
120.479	-0.108179	-0.195996	0
120.486	-0.107072	-0.19599	0
120.494	-0.106041	-0.195996	0
120.502	-0.10501	-0.195993	0
120.511	-0.103998	-0.195997	0
120.52	-0.102948	-0.195995	0
120.531	-0.101898	-0.195992	0
120.542	-0.100886	-0.195995	0
120.554	-0.0997785	-0.195989	0
120.569	-0.0987666	-0.195996	0
120.585	-0.0977357	-0.195992	0
120.601	-0.0967238	-0.19599	0
120.62	-0.0956547	-0.195988	0
120.644	-0.0946428	-0.19599	0
120.668	-0.0935927	-0.195992	0
120.697	-0.0925236	-0.195992	0
120.732	-0.0915117	-0.195998	0
120.772	-0.0904998	-0.195992	0
120.816	-0.089488	-0.19599	0
120.873	-0.0884761	-0.195993	0
120.945	-0.0874451	-0.195997	0
121.031	-0.0864142	-0.195997	0
121.132	-0.0853832	-0.195994	0
121.306	-0.0843713	-0.195994	0
121.555	-0.0833404	-0.195997	0
122.057	-0.0823285	-0.195989	0
125.555	-0.0833977	-0.195995	0
127.266	-0.0844286	-0.195997	0
129.01	-0.0854596	-0.195988	0
130.734	-0.0864714	-0.195994	0
132.579	-0.0874833	-0.195992	0
134.579	-0.0884952	-0.195995	0
136.872	-0.0895262	-0.195991	0
139.383	-0.0905571	-0.195992	0
142.227	-0.0915881	-0.195992	0
145.951	-0.0926381	-0.195992	0
150.33	-0.0936691	-0.196001	0
155.819	-0.094681	-0.195997	0
156.206	-0.0945855	-0.195997	0