File: EXPERIMENTAL/DATA/Electrochemical-cycling/S-series/2024-07-02_S20_Icell_t1800_C0010_J01_deltaX-110,2mm_plating-stripping_07_CP_C02.txt
time/s	Ewe/V	I/mA	error
2569.78	0.912787	-0.194577	0
2569.78	0.904285	-0.195969	0
2569.78	0.89854	-0.195966	0
2569.78	0.892279	-0.19597	0
2569.78	0.886533	-0.195967	0
2569.79	0.881112	-0.195963	0
2569.79	0.876073	-0.195966	0
2569.79	0.871148	-0.195964	0
2569.79	0.866586	-0.195964	0
2569.79	0.862062	-0.195972	0
2569.79	0.857767	-0.195967	0
2569.8	0.852594	-0.195964	0
2569.8	0.847803	-0.19597	0
2569.8	0.842	-0.195969	0
2569.8	0.836846	-0.195968	0
2569.8	0.831654	-0.195967	0
2569.81	0.826711	-0.195972	0
2569.81	0.821862	-0.195975	0
2569.81	0.816537	-0.195967	0
2569.81	0.811535	-0.195968	0
2569.82	0.806496	-0.195966	0
2569.82	0.801609	-0.195969	0
2569.82	0.797009	-0.195972	0
2569.82	0.792352	-0.195968	0
2569.83	0.787618	-0.195971	0
2569.83	0.783208	-0.195971	0
2569.83	0.778303	-0.195973	0
2569.83	0.772786	-0.195965	0
2569.84	0.767766	-0.195967	0
2569.84	0.762498	-0.195964	0
2569.84	0.756943	-0.195966	0
2569.84	0.752476	-0.195974	0
2569.85	0.747704	-0.195969	0
2569.85	0.742894	-0.195974	0
2569.85	0.738332	-0.195965	0
2569.86	0.733102	-0.195973	0
2569.86	0.728329	-0.195967	0
2569.86	0.72392	-0.195971	0
2569.87	0.719053	-0.195969	0
2569.87	0.714261	-0.195971	0
2569.87	0.709547	-0.195969	0
2569.87	0.704679	-0.195967	0
2569.88	0.699716	-0.195968	0
2569.88	0.695135	-0.195973	0
2569.88	0.690535	-0.195972	0
2569.89	0.686011	-0.195973	0
2569.89	0.681639	-0.195966	0
2569.89	0.676925	-0.195968	0
2569.9	0.672382	-0.195968	0
2569.9	0.667915	-0.195971	0
2569.9	0.663448	-0.195967	0
2569.91	0.658695	-0.195969	0
2569.91	0.65421	-0.195965	0
2569.91	0.649857	-0.195967	0
2569.92	0.645314	-0.195966	0
2569.92	0.641	-0.195971	0
2569.92	0.636457	-0.195962	0
2569.93	0.631934	-0.195963	0
2569.93	0.62741	-0.19597	0
2569.93	0.622886	-0.195968	0
2569.94	0.618362	-0.195965	0
2569.94	0.61401	-0.195969	0
2569.94	0.609486	-0.195974	0
2569.95	0.605076	-0.195966	0
2569.95	0.600514	-0.195969	0
2569.95	0.59578	-0.195975	0
2569.96	0.591237	-0.195969	0
2569.96	0.586694	-0.195966	0
2569.96	0.582399	-0.195966	0
2569.97	0.578181	-0.195969	0
2569.97	0.573466	-0.195964	0
2569.98	0.568866	-0.195972	0
2569.98	0.564113	-0.195964	0
2569.98	0.559589	-0.195968	0
2569.99	0.554855	-0.195968	0
2569.99	0.550522	-0.195971	0
2569.99	0.545788	-0.195968	0
2570	0.541073	-0.195969	0
2570	0.536244	-0.195969	0
2570.01	0.531529	-0.195963	0
2570.01	0.5267	-0.195967	0
2570.01	0.522252	-0.195973	0
2570.02	0.517709	-0.195967	0
2570.02	0.513262	-0.195966	0
2570.03	0.508509	-0.195971	0
2570.03	0.504309	-0.195966	0
2570.03	0.499881	-0.195967	0
2570.04	0.495452	-0.195972	0
2570.04	0.491119	-0.195966	0
2570.05	0.486385	-0.195966	0
2570.05	0.481976	-0.195962	0
2570.06	0.477356	-0.195968	0
2570.06	0.472871	-0.195966	0
2570.06	0.468347	-0.195966	0
2570.07	0.464033	-0.195966	0
2570.07	0.459165	-0.195968	0
2570.08	0.454794	-0.195968	0
2570.08	0.450232	-0.195971	0
2570.09	0.445822	-0.195964	0
2570.09	0.440993	-0.195965	0
2570.09	0.436526	-0.19597	0
2570.1	0.432365	-0.195966	0
2570.1	0.427612	-0.195969	0
2570.11	0.422993	-0.195966	0
2570.11	0.418431	-0.195966	0
2570.12	0.413869	-0.195966	0
2570.12	0.409287	-0.195971	0
2570.13	0.404668	-0.195967	0
2570.13	0.400316	-0.195968	0
2570.14	0.395544	-0.19597	0
2570.14	0.390944	-0.195973	0
2570.15	0.386381	-0.195968	0
2570.15	0.382087	-0.195973	0
2570.16	0.377257	-0.195968	0
2570.16	0.373039	-0.195963	0
2570.16	0.368477	-0.195973	0
2570.17	0.36422	-0.195964	0
2570.17	0.359753	-0.195965	0
2570.18	0.355516	-0.195968	0
2570.18	0.351068	-0.195972	0
2570.19	0.346296	-0.195964	0
2570.19	0.342039	-0.195966	0
2570.2	0.33742	-0.195968	0
2570.2	0.332839	-0.195968	0
2570.21	0.328353	-0.19597	0
2570.21	0.323829	-0.195965	0
2570.22	0.319324	-0.195972	0
2570.22	0.3148	-0.195967	0
2570.23	0.310429	-0.195962	0
2570.23	0.305791	-0.195968	0
2570.24	0.3014	-0.195969	0
2570.25	0.296724	-0.195968	0
2570.25	0.292295	-0.195961	0
2570.26	0.287848	-0.195963	0
2570.26	0.28361	-0.195968	0
2570.27	0.279143	-0.195964	0
2570.27	0.274543	-0.195973	0
2570.28	0.270076	-0.195972	0
2570.28	0.265801	-0.195971	0
2570.29	0.261219	-0.19597	0
2570.29	0.256848	-0.195963	0
2570.3	0.252343	-0.195966	0
2570.3	0.248182	-0.195969	0
2570.31	0.243735	-0.19597	0
2570.32	0.239497	-0.195966	0
2570.32	0.234897	-0.195971	0
2570.33	0.230583	-0.19597	0
2570.33	0.226135	-0.195966	0
2570.34	0.221745	-0.195969	0
2570.34	0.217144	-0.195975	0
2570.35	0.212697	-0.195962	0
2570.36	0.208135	-0.195968	0
2570.36	0.203706	-0.195973	0
2570.37	0.199297	-0.19597	0
2570.37	0.194983	-0.195975	0
2570.38	0.190841	-0.195968	0
2570.39	0.186431	-0.195972	0
2570.39	0.182137	-0.195971	0
2570.4	0.177498	-0.195964	0
2570.4	0.173127	-0.19597	0
2570.41	0.168584	-0.19597	0
2570.42	0.164041	-0.195965	0
2570.42	0.159689	-0.195972	0
2570.43	0.155356	-0.195971	0
2570.44	0.150774	-0.19597	0
2570.44	0.146403	-0.195971	0
2570.45	0.141917	-0.19597	0
2570.46	0.137642	-0.195965	0
2570.46	0.133232	-0.195973	0
2570.47	0.128861	-0.195966	0
2570.48	0.124604	-0.195966	0
2570.48	0.120367	-0.195972	0
2570.49	0.115881	-0.195973	0
2570.5	0.111319	-0.195969	0
2570.5	0.106967	-0.19597	0
2570.51	0.102596	-0.195961	0
2570.52	0.0979189	-0.195973	0
2570.52	0.0936813	-0.195969	0
2570.53	0.0893483	-0.195968	0
2570.54	0.0849961	-0.195968	0
2570.55	0.0807394	-0.195973	0
2570.55	0.0764637	-0.195968	0
2570.56	0.0720734	-0.195966	0
2570.57	0.0676067	-0.195967	0
2570.58	0.0633691	-0.195962	0
2570.58	0.0588833	-0.195969	0
2570.59	0.0545694	-0.19597	0
2570.6	0.0501218	-0.195964	0
2570.61	0.0457888	-0.195964	0
2570.62	0.0410739	-0.195967	0
2570.62	0.03676	-0.19597	0
2570.63	0.0325606	-0.195967	0
2570.64	0.0281321	-0.195973	0
2570.65	0.02357	-0.195973	0
2570.66	0.0192369	-0.195969	0
2570.67	0.0149611	-0.195971	0
2570.67	0.0106472	-0.195966	0
2570.68	0.00627595	-0.195964	0
2570.69	0.00184746	-0.195971	0
2570.7	-0.00235197	-0.195964	0
2570.71	-0.00676137	-0.195966	0
2570.72	-0.011228	-0.19597	0
2570.73	-0.0153702	-0.195969	0
2570.74	-0.0196651	-0.19597	0
2570.75	-0.0240936	-0.195969	0
2570.76	-0.0283312	-0.195967	0
2570.77	-0.0327787	-0.195968	0
2570.78	-0.0370736	-0.195971	0
2570.79	-0.0413303	-0.195968	0
2570.8	-0.0455679	-0.195971	0
2570.82	-0.0498819	-0.195969	0
2570.83	-0.054024	-0.195968	0
2570.85	-0.0582998	-0.195968	0
2570.87	-0.0625374	-0.195968	0
2570.89	-0.0669086	-0.195975	0
2570.92	-0.0711844	-0.195968	0
2570.95	-0.0753075	-0.195965	0
2571.02	-0.0793542	-0.19597	0
2573.3	-0.0834964	-0.19597	0
2575.17	-0.0876576	-0.195971	0
2577.01	-0.0917807	-0.195968	0
2579.11	-0.0958274	-0.195974	0
2581.61	-0.0999123	-0.195973	0
2584.39	-0.103978	-0.195977	0
2587.83	-0.108063	-0.195971	0
2592.19	-0.112129	-0.195971	0
2600.69	-0.116214	-0.195973	0
2605.78	-0.116901	-0.195969	0