File: EXPERIMENTAL/DATA/Electrochemical-cycling/S-series/2024-07-02_S22_Icell_t0000_C0050_J01_deltaX-110,1mm_LFP_02_CP_C05.txt
time/s	Ewe/V	I/mA	error
60.0524	-0.372573	-0.594791	0
60.0556	-0.988488	-0.781585	0
60.0588	-1.12678	-0.782979	0
60.0622	-1.1883	-0.783927	0
60.0662	-1.24697	-0.784284	0
60.0702	-1.27459	-0.784494	0
60.0736	-1.30353	-0.784455	0
60.079	-1.32568	-0.784672	0
60.083	-1.35177	-0.784589	0
60.0882	-1.37707	-0.784704	0
60.0926	-1.40169	-0.784621	0
60.0974	-1.42561	-0.784653	0
60.1018	-1.44755	-0.784685	0
60.1068	-1.46637	-0.784761	0
60.1128	-1.48886	-0.784774	0
60.1184	-1.51125	-0.784742	0
60.124	-1.53523	-0.784723	0
60.1312	-1.55905	-0.784755	0
60.138	-1.5817	-0.784786	0
60.1432	-1.6051	-0.784793	0
60.1514	-1.62789	-0.784844	0
60.1578	-1.65137	-0.784767	0
60.1632	-1.67531	-0.78471	0
60.171	-1.69824	-0.784799	0
60.1806	-1.72084	-0.78485	0
60.1892	-1.74389	-0.784793	0
60.1992	-1.76761	-0.784818	0
60.2082	-1.78919	-0.784844	0
60.218	-1.81095	-0.784831	0
60.2272	-1.83378	-0.784856	0
60.2384	-1.84976	-0.784863	0
60.25	-1.87181	-0.784901	0
60.2628	-1.89401	-0.78485	0
60.2764	-1.91314	-0.784882	0
60.289	-1.93446	-0.784901	0
60.3014	-1.95521	-0.784863	0
60.3092	-1.97554	-0.784895	0
60.3238	-1.99643	-0.784882	0
60.3362	-2.01546	-0.78485	0
60.348	-2.03461	-0.78485	0
60.3598	-2.05343	-0.784888	0
60.3706	-2.07565	-0.784901	0
60.3782	-2.09545	-0.784914	0
60.3914	-2.11509	-0.784837	0
60.4022	-2.13611	-0.784812	0
60.4162	-2.15719	-0.784837	0
60.4286	-2.1784	-0.784863	0
60.4412	-2.20029	-0.784837	0
60.4522	-2.2225	-0.784786	0
60.4658	-2.24506	-0.784875	0
60.479	-2.26579	-0.784812	0
60.4898	-2.28757	-0.784856	0
60.4996	-2.30884	-0.784888	0
60.5098	-2.33014	-0.784837	0
60.522	-2.35063	-0.784856	0
60.532	-2.37186	-0.784844	0
60.5424	-2.39141	-0.784748	0
60.552	-2.41107	-0.784837	0
60.5636	-2.43077	-0.784888	0
60.5768	-2.45175	-0.78492	0
60.5914	-2.46975	-0.784844	0
60.6048	-2.4896	-0.784818	0
60.6204	-2.50839	-0.784926	0
60.6358	-2.52805	-0.784945	0
60.6534	-2.54766	-0.784901	0
60.6708	-2.56787	-0.784882	0
60.6862	-2.58695	-0.78492	0
60.7034	-2.60626	-0.784907	0
60.7174	-2.62555	-0.784882	0
60.7342	-2.64341	-0.784914	0
60.7478	-2.66119	-0.784875	0
60.7664	-2.68064	-0.784863	0
60.7856	-2.70032	-0.784926	0
60.8032	-2.72018	-0.784895	0
60.8176	-2.73921	-0.784901	0
60.8368	-2.75866	-0.784863	0
60.86	-2.77764	-0.784831	0
60.8842	-2.79474	-0.784984	0
60.9046	-2.81479	-0.784901	0
60.9302	-2.82893	-0.784926	0
60.9566	-2.84814	-0.784945	0
60.9804	-2.86837	-0.784952	0
61.0058	-2.88678	-0.78492	0
61.0304	-2.90516	-0.784933	0
61.0544	-2.92224	-0.784939	0
61.08	-2.9341	-0.784895	0
61.1002	-2.95191	-0.784977	0
61.127	-2.9642	-0.784984	0
61.1554	-2.98286	-0.78492	0
61.187	-3.00065	-0.784965	0
61.2112	-3.01926	-0.784945	0
61.2428	-3.03205	-0.784971	0
61.2688	-3.0462	-0.785009	0
61.3008	-3.06506	-0.784914	0
61.3408	-3.0785	-0.784984	0
61.3792	-3.09747	-0.784914	0
61.4314	-3.11435	-0.784984	0
61.4666	-3.13113	-0.784996	0
61.5182	-3.14997	-0.784933	0
61.5576	-3.16492	-0.78499	0
61.5954	-3.18323	-0.784939	0
61.637	-3.19936	-0.785041	0
61.6844	-3.20886	-0.784901	0
61.7238	-3.22288	-0.784977	0
61.7596	-3.22998	-0.785015	0
61.7918	-3.24223	-0.784856	0
61.8322	-3.25168	-0.784945	0
61.866	-3.2634	-0.784926	0
61.9188	-3.27694	-0.784952	0
61.9516	-3.28637	-0.784945	0
61.988	-3.29895	-0.784965	0
62.0202	-3.30353	-0.784945	0
62.0446	-3.31033	-0.784939	0
62.072	-3.31285	-0.784965	0
62.1102	-3.32421	-0.784952	0
62.149	-3.33156	-0.784914	0
62.1948	-3.34654	-0.784984	0
62.2418	-3.358	-0.784984	0
62.2876	-3.36596	-0.784939	0
62.3368	-3.37636	-0.784958	0
62.3902	-3.38825	-0.784965	0
62.433	-3.39612	-0.785003	0
62.4628	-3.40324	-0.784958	0
62.4952	-3.41133	-0.784914	0
62.5282	-3.42052	-0.784984	0
62.5554	-3.42466	-0.784971	0
62.5798	-3.42351	-0.784984	0
62.626	-3.4325	-0.784965	0
62.6626	-3.44199	-0.784971	0
62.6924	-3.45261	-0.785003	0
62.7292	-3.45568	-0.785009	0
62.753	-3.46801	-0.785028	0
62.7766	-3.4787	-0.784965	0
62.8014	-3.48794	-0.784977	0
62.8356	-3.4913	-0.784996	0
62.8642	-3.49846	-0.784939	0
62.8978	-3.50444	-0.784971	0
62.918	-3.5069	-0.785003	0
62.9562	-3.51856	-0.784965	0
62.9884	-3.5229	-0.784996	0
63.0056	-3.52692	-0.784958	0
63.0288	-3.53303	-0.784965	0
63.0558	-3.53301	-0.784958	0
63.0906	-3.53964	-0.784971	0
63.1316	-3.55157	-0.784958	0
63.1558	-3.55816	-0.784958	0
63.1922	-3.56337	-0.784984	0
63.2242	-3.57226	-0.784926	0
63.2468	-3.58208	-0.784952	0
63.2742	-3.59342	-0.784933	0
63.3022	-3.59802	-0.785022	0
63.3226	-3.60462	-0.785003	0
63.3576	-3.60577	-0.784939	0
63.3912	-3.61797	-0.784888	0
63.4256	-3.62062	-0.784939	0
63.4532	-3.62509	-0.785009	0
63.4738	-3.62881	-0.785009	0
63.508	-3.64112	-0.784907	0
63.5364	-3.65111	-0.78499	0
63.5556	-3.65964	-0.784907	0
63.5728	-3.6618	-0.784945	0
63.5962	-3.671	-0.785022	0
63.6238	-3.67403	-0.784971	0
63.653	-3.68215	-0.784977	0
63.6778	-3.69125	-0.784952	0
63.7044	-3.69791	-0.784996	0
63.7228	-3.70355	-0.784977	0
63.7416	-3.70891	-0.784971	0
63.7578	-3.71382	-0.784945	0
63.7792	-3.71557	-0.78499	0
63.802	-3.71807	-0.784952	0
63.8236	-3.73186	-0.784952	0
63.8474	-3.73995	-0.784933	0
63.8684	-3.73974	-0.78499	0
63.892	-3.74182	-0.78499	0
63.9104	-3.74808	-0.785003	0
63.9248	-3.74881	-0.784977	0
63.9414	-3.75003	-0.784952	0
63.9602	-3.75958	-0.785047	0
63.987	-3.76011	-0.784977	0
64.0054	-3.76347	-0.78492	0
64.015	-3.7624	-0.785003	0
64.0348	-3.76616	-0.784965	0
64.0562	-3.77893	-0.784984	0
64.0732	-3.77998	-0.785015	0
64.0926	-3.78334	-0.784933	0
64.1132	-3.78905	-0.784971	0
64.1294	-3.7944	-0.785022	0
64.1492	-3.79999	-0.784926	0
64.1656	-3.79566	-0.784939	0
64.1814	-3.80505	-0.784958	0
64.1914	-3.80707	-0.785047	0
64.2058	-3.80961	-0.785003	0
64.2234	-3.80732	-0.784965	0
64.2456	-3.81763	-0.784939	0
64.2662	-3.82339	-0.784996	0
64.2906	-3.82427	-0.78499	0
64.311	-3.838	-0.78492	0
64.3282	-3.83949	-0.784914	0
64.3444	-3.8443	-0.78499	0
64.3728	-3.85045	-0.784901	0
64.3954	-3.85319	-0.784926	0
64.4096	-3.85581	-0.784952	0
64.423	-3.86087	-0.784945	0
64.4468	-3.86075	-0.785003	0
64.4628	-3.85766	-0.784977	0
64.4836	-3.86444	-0.784971	0
64.5114	-3.87814	-0.784895	0
64.5324	-3.89006	-0.784996	0
64.5504	-3.88504	-0.784958	0
64.5724	-3.88727	-0.784958	0
64.5878	-3.8871	-0.784965	0
64.615	-3.88983	-0.784971	0
64.6308	-3.892	-0.784958	0
64.644	-3.90145	-0.784945	0
64.6592	-3.90756	-0.784971	0
64.6774	-3.91071	-0.784965	0
64.6884	-3.91818	-0.784895	0
64.7046	-3.91365	-0.785035	0
64.7236	-3.92154	-0.784965	0
64.7396	-3.92282	-0.785041	0
64.7608	-3.924	-0.784971	0
64.7868	-3.92591	-0.784965	0
64.7988	-3.92541	-0.784977	0
64.814	-3.92795	-0.784926	0
64.8324	-3.93454	-0.784939	0
64.8468	-3.94381	-0.784971	0
64.8646	-3.94469	-0.784984	0
64.8854	-3.94803	-0.784945	0
64.9032	-3.95155	-0.784888	0
64.9126	-3.95951	-0.785079	0
64.9278	-3.95878	-0.78492	0
64.943	-3.96693	-0.784984	0
64.9606	-3.96602	-0.784984	0
64.9768	-3.96399	-0.784945	0
64.9938	-3.96674	-0.784939	0
65.0178	-3.96884	-0.78499	0
65.038	-3.97644	-0.784933	0
65.0618	-3.97892	-0.784996	0
65.0728	-3.98303	-0.784926	0
65.0894	-3.98213	-0.784952	0
65.1044	-3.98557	-0.784939	0
65.1194	-3.99561	-0.784958	0
65.138	-3.99127	-0.785022	0
65.1562	-3.99368	-0.784958	0
65.169	-3.99643	-0.784996	0
65.1818	-4.00151	-0.78499	0
65.1942	-4.0033	-0.785009	0
65.2124	-4.00605	-0.784984	0
65.2278	-4.01399	-0.784958	0
65.244	-4.01296	-0.784965	0
65.2596	-4.01596	-0.784952	0
65.27	-4.02327	-0.784958	0
65.2836	-4.02079	-0.784971	0
65.2964	-4.02678	-0.784971	0
65.3096	-4.01916	-0.784996	0
65.323	-4.0242	-0.78499	0
65.3378	-4.02703	-0.784933	0
65.3514	-4.02659	-0.78492	0
65.3626	-4.02585	-0.784977	0
65.3748	-4.03331	-0.784939	0
65.3898	-4.04217	-0.784965	0
65.3996	-4.05627	-0.784971	0
65.411	-4.05116	-0.784971	0
65.4238	-4.04068	-0.784933	0
65.4396	-4.04369	-0.784945	0
65.4542	-4.04906	-0.784971	0
65.4694	-4.04969	-0.784971	0
65.483	-4.04329	-0.78499	0
65.4996	-4.0462	-0.784914	0
65.5096	-4.05215	-0.784926	0
65.5226	-4.05948	-0.78499	0
65.537	-4.05944	-0.785028	0
65.5494	-4.05843	-0.784914	0
65.5628	-4.06592	-0.784939	0
65.5756	-4.07271	-0.784971	0
65.5848	-4.09092	-0.785041	0
65.5954	-4.10253	-0.784958	0
65.603	-4.10173	-0.784933	0
65.611	-4.11773	-0.784926	0
65.6212	-4.11393	-0.784895	0
65.628	-4.13384	-0.784933	0
65.6342	-4.13107	-0.785124	0
65.6378	-4.17286	-0.784786	0
65.6422	-4.20504	-0.784621	0
65.6454	-4.60678	-0.773408	0
65.6486	-4.76616	-0.783475	0
65.6548	-3.53141	-0.784945	0
65.675	-3.54936	-0.784996	0
65.835	-3.55379	-0.784977	0
66.006	-3.53708	-0.784952	0
83.3738	-3.5447	-0.785022	0
238.456	-3.55845	-0.784926	0
240.052	-3.55873	-0.784984	0