File: EXPERIMENTAL/DATA/Electrochemical-cycling/S-series/2024-06-14_S03_Icell_t1800_C0500_J01_deltaX-110,0mm_04_CP_C04.txt
time/s	Ewe/V	I/mA	error
1860.21	-0.000685482	-0.194732	0
1860.21	-0.00840352	-0.195979	0
1860.21	-0.0111143	-0.195981	0
1860.21	-0.0147414	-0.195981	0
1860.21	-0.0180631	-0.195976	0
1860.21	-0.0212321	-0.195982	0
1860.21	-0.0242865	-0.195982	0
1860.21	-0.0269209	-0.19598	0
1860.21	-0.0300326	-0.195982	0
1860.21	-0.0325716	-0.195982	0
1860.21	-0.0352633	-0.195981	0
1860.21	-0.0378214	-0.195982	0
1860.21	-0.0402077	-0.19598	0
1860.22	-0.042613	-0.195977	0
1860.22	-0.0449802	-0.195977	0
1860.22	-0.0474046	-0.195979	0
1860.22	-0.0495809	-0.195976	0
1860.22	-0.0523872	-0.195978	0
1860.22	-0.055098	-0.195986	0
1860.22	-0.0577324	-0.195986	0
1860.22	-0.060405	-0.195979	0
1860.22	-0.0632685	-0.195982	0
1860.22	-0.0653112	-0.195981	0
1860.22	-0.0677547	-0.195982	0
1860.23	-0.0705037	-0.195977	0
1860.23	-0.0734436	-0.195979	0
1860.23	-0.0756389	-0.195979	0
1860.23	-0.0781397	-0.195976	0
1860.23	-0.0804687	-0.195984	0
1860.23	-0.0827786	-0.195979	0
1860.23	-0.0853749	-0.195982	0
1860.23	-0.0877039	-0.195979	0
1860.24	-0.0899947	-0.195977	0
1860.24	-0.0927437	-0.195982	0
1860.24	-0.0948627	-0.195984	0
1860.24	-0.0971535	-0.195983	0
1860.24	-0.0994825	-0.195979	0
1860.24	-0.101678	-0.195985	0
1860.24	-0.104255	-0.195979	0
1860.24	-0.106527	-0.195977	0
1860.25	-0.108798	-0.195979	0
1860.25	-0.111127	-0.195987	0
1860.25	-0.113552	-0.195978	0
1860.25	-0.115785	-0.195981	0
1860.25	-0.118038	-0.195977	0
1860.25	-0.120214	-0.195974	0
1860.26	-0.122524	-0.195979	0
1860.26	-0.125006	-0.195977	0
1860.26	-0.127316	-0.195985	0
1860.26	-0.129549	-0.195983	0
1860.26	-0.131783	-0.195987	0
1860.27	-0.133959	-0.195979	0
1860.27	-0.136002	-0.195979	0
1860.27	-0.138235	-0.195976	0
1860.27	-0.14066	-0.195984	0
1860.27	-0.142932	-0.195982	0
1860.28	-0.145222	-0.195987	0
1860.28	-0.147475	-0.195979	0
1860.28	-0.149632	-0.195976	0
1860.29	-0.151866	-0.195984	0
1860.29	-0.15408	-0.195975	0
1860.29	-0.156276	-0.195981	0
1860.3	-0.158356	-0.195984	0
1860.3	-0.160437	-0.195975	0
1860.3	-0.16248	-0.195978	0
1860.31	-0.16458	-0.195981	0
1860.32	-0.166699	-0.195986	0
1860.32	-0.168722	-0.195981	0
1860.33	-0.170765	-0.195986	0
1860.36	-0.170708	-0.195977	0
1860.37	-0.168627	-0.195986	0
1860.38	-0.166393	-0.195979	0
1860.39	-0.164198	-0.195985	0
1860.39	-0.162117	-0.195984	0
1860.4	-0.160094	-0.195981	0
1860.4	-0.157803	-0.195982	0
1860.41	-0.155741	-0.195979	0
1860.41	-0.153469	-0.195984	0
1860.42	-0.151331	-0.195984	0
1860.42	-0.149117	-0.195988	0
1860.43	-0.146711	-0.195979	0
1860.43	-0.14465	-0.195988	0
1860.43	-0.142493	-0.195977	0
1860.44	-0.14045	-0.195982	0
1860.44	-0.138216	-0.195985	0
1860.45	-0.136116	-0.195988	0
1860.45	-0.133959	-0.195984	0
1860.46	-0.131936	-0.195979	0
1860.46	-0.129893	-0.195981	0
1860.47	-0.127736	-0.195984	0
1860.47	-0.125521	-0.195979	0
1860.48	-0.12346	-0.195982	0
1860.49	-0.121398	-0.195984	0
1860.49	-0.119336	-0.195985	0
1860.5	-0.117313	-0.195981	0
1860.51	-0.115232	-0.195981	0
1860.52	-0.113132	-0.195986	0
1860.53	-0.111051	-0.195981	0
1860.54	-0.109008	-0.195983	0
1860.55	-0.106947	-0.195976	0
1860.56	-0.104809	-0.195978	0
1860.58	-0.102747	-0.195984	0
1860.6	-0.100723	-0.195982	0
1860.62	-0.0985662	-0.195978	0
1860.65	-0.0964854	-0.195983	0
1860.68	-0.0944427	-0.195984	0
1860.72	-0.0924001	-0.195983	0
1860.78	-0.0903002	-0.195976	0
1860.87	-0.0882575	-0.195976	0
1861.01	-0.086234	-0.195982	0
1861.32	-0.0841341	-0.195981	0
1863.58	-0.0841341	-0.195985	0
1866.07	-0.0861576	-0.195985	0
1868.89	-0.0881812	-0.195988	0
1872.12	-0.0902429	-0.19598	0
1876.27	-0.0922664	-0.195983	0
1881.87	-0.0943091	-0.195984	0
1890.02	-0.0963326	-0.195981	0
1906	-0.0983944	-0.195979	0
1926	-0.0993107	-0.195984	0
1946	-0.0997307	-0.195982	0
1966	-0.0998643	-0.195984	0
1986	-0.0996925	-0.19599	0
2006	-0.0992343	-0.195987	0
2026	-0.0987571	-0.195984	0
2046	-0.098318	-0.195986	0
2066	-0.0979744	-0.195985	0
2086	-0.097478	-0.195982	0
2106	-0.0969435	-0.195986	0
2126	-0.0965235	-0.195986	0
2146	-0.0963899	-0.195988	0
2166	-0.0965426	-0.195987	0
2186	-0.0965617	-0.195982	0
2206	-0.0959317	-0.19599	0
2226	-0.0958745	-0.19599	0
2246	-0.0956836	-0.195986	0
2266	-0.0955118	-0.195985	0
2286	-0.0952063	-0.19599	0
2306	-0.0951681	-0.195989	0
2326	-0.0949391	-0.195984	0
2346	-0.0948436	-0.195985	0
2366	-0.0948627	-0.195987	0
2386	-0.09492	-0.195987	0
2406	-0.0953209	-0.195986	0
2426	-0.0946336	-0.195986	0
2446	-0.0940227	-0.195977	0
2466	-0.0937555	-0.195988	0
2486	-0.0941182	-0.195982	0
2506	-0.0948436	-0.195988	0
2526	-0.0956836	-0.19599	0
2546	-0.0954163	-0.195989	0
2566	-0.0957408	-0.195986	0
2586	-0.0959127	-0.195986	0
2606	-0.0965617	-0.195991	0
2626	-0.0969626	-0.195984	0
2646	-0.0971344	-0.195979	0
2666	-0.0974017	-0.195989	0
2686	-0.0973444	-0.195989	0
2706	-0.0962372	-0.195984	0
2726	-0.096409	-0.195988	0
2746	-0.0971917	-0.195988	0
2764.92	-0.0992343	-0.195988	0
2784.5	-0.100723	-0.195987	0
2804.45	-0.101754	-0.195984	0
2824.45	-0.101563	-0.195986	0
2844.45	-0.101563	-0.195988	0
2864.45	-0.101697	-0.195986	0
2867.61	-0.0996543	-0.195981	0
2871.84	-0.0976308	-0.195983	0
2882.11	-0.095569	-0.195979	0
2902.11	-0.0959127	-0.195989	0
2920.19	-0.0944427	-0.195979	0
2940.19	-0.0929919	-0.195985	0
2960.19	-0.0923428	-0.195982	0
2980.19	-0.0922855	-0.195986	0
3000.19	-0.0917892	-0.195984	0
3018.85	-0.0903574	-0.195986	0
3038.85	-0.0894602	-0.195988	0
3058.85	-0.0889257	-0.195986	0
3078.85	-0.0883911	-0.195984	0
3098.85	-0.087933	-0.195981	0
3118.85	-0.0878566	-0.195979	0
3138.85	-0.0876084	-0.19598	0
3158.85	-0.0871885	-0.195984	0
3178.85	-0.0866158	-0.195977	0
3198.85	-0.0866921	-0.195987	0
3218.85	-0.0864249	-0.195985	0
3238.85	-0.0862149	-0.195986	0
3258.85	-0.0860049	-0.195986	0
3278.85	-0.0859667	-0.195991	0
3298.85	-0.0859094	-0.195983	0
3318.85	-0.0857185	-0.195984	0
3338.85	-0.085394	-0.195985	0
3358.85	-0.0852031	-0.195986	0
3378.85	-0.0847068	-0.195988	0
3398.85	-0.0845922	-0.195984	0
3418.85	-0.0846304	-0.195987	0
3438.85	-0.0845158	-0.195984	0
3458.85	-0.0846686	-0.19598	0
3478.85	-0.0845922	-0.195982	0
3498.85	-0.0844777	-0.19599	0
3518.85	-0.0842104	-0.195984	0
3538.85	-0.0842104	-0.195982	0
3558.85	-0.0840959	-0.195989	0
3578.85	-0.0840577	-0.195986	0
3598.85	-0.084115	-0.195985	0
3618.85	-0.0840768	-0.195984	0
3638.85	-0.0837904	-0.195989	0
3658.85	-0.0834277	-0.195984	0
3660.21	-0.0833323	-0.195983	0