File: EXPERIMENTAL/DATA/Electrochemical-cycling/S-series/2024-07-02_S20_Icell_t1800_C0010_J01_deltaX-110,2mm_plating-stripping_02_MB_C02.txt
time/s	Ewe/V	I/mA	error
60.053	2.5706	-0.0250311	0	0
60.1436	0.00919835	-8.53814	0	0
60.1444	0.00916017	-8.35891	0	0
60.1452	0.00923652	-8.18687	0	0
60.146	0.00923652	-8.02138	0	0
60.1468	0.00925561	-7.86175	0	0
60.1476	0.00929379	-7.70676	0	0
60.1484	0.00919835	-7.5587	0	0
60.1492	0.00923652	-7.4144	0	0
60.15	0.0092747	-7.275	0	0
60.1508	0.00925561	-7.14082	0	0
60.1516	0.00929379	-7.01007	0	0
60.1524	0.00923652	-6.88371	0	0
60.1532	0.00921743	-6.76168	0	0
60.154	0.00923652	-6.64245	0	0
60.1548	0.00929379	-6.52761	0	0
60.1556	0.00923652	-6.41582	0	0
60.1564	0.00921743	-6.30683	0	0
60.1572	0.00933196	-6.20134	0	0
60.158	0.00925561	-6.09897	0	0
60.1592	0.00925561	-5.95136	0	0
60.1604	0.00929379	-5.80897	0	0
60.1616	0.00921743	-5.673	0	0
60.1628	0.00923652	-5.54302	0	0
60.164	0.00937014	-5.41691	0	0
60.1652	0.00923652	-5.29622	0	0
60.1664	0.00921743	-5.1794	0	0
60.1676	0.00937014	-5.06831	0	0
60.1688	0.00929379	-4.96123	0	0
60.17	0.00929379	-4.85733	0	0
60.1716	0.00921743	-4.725	0	0
60.1732	0.00919835	-4.59896	0	0
60.1748	0.00921743	-4.47972	0	0
60.1764	0.00937014	-4.36361	0	0
60.178	0.00921743	-4.25405	0	0
60.1796	0.00921743	-4.14938	0	0
60.1814	0.00921743	-4.03613	0	0
60.1834	0.00925561	-3.91709	0	0
60.1854	0.00935105	-3.80441	0	0
60.1874	0.00919835	-3.69822	0	0
60.1894	0.00925561	-3.5961	0	0
60.1918	0.00929379	-3.47986	0	0
60.1942	0.00931287	-3.37005	0	0
60.1966	0.00923652	-3.26678	0	0
60.1994	0.00933196	-3.15321	0	0
60.2022	0.00929379	-3.0469	0	0
60.2052	0.00931287	-2.93893	0	0
60.2084	0.00929379	-2.83191	0	0
60.2116	0.00923652	-2.73068	0	0
60.2152	0.00937014	-2.62539	0	0
60.219	0.00923652	-2.5199	0	0
60.223	0.00919835	-2.41848	0	0
60.2274	0.00923652	-2.31452	0	0
60.2322	0.0092747	-2.21024	0	0
60.2374	0.00931287	-2.10621	0	0
60.2432	0.00925561	-2.00193	0	0
60.2494	0.00925561	-1.89828	0	0
60.2562	0.00933196	-1.79642	0	0
60.2638	0.00931287	-1.69469	0	0
60.2722	0.00933196	-1.59295	0	0
60.2816	0.00929379	-1.49172	0	0
60.2924	0.0092747	-1.38884	0	0
60.3044	0.00917926	-1.288	0	0
60.3184	0.00931287	-1.18588	0	0
60.335	0.00923652	-1.08414	0	0
60.3544	0.00937014	-0.983682	0	0
60.378	0.00925561	-0.882709	0	0
60.4076	0.00935105	-0.781674	0	0
60.4444	0.00925561	-0.681656	0	0
60.493	0.00925561	-0.581511	0	0
60.5614	0.00917926	-0.48003	0	0
60.674	0.00917926	-0.374738	0	0
60.8608	0.00935105	-0.274517	0	0
61.2832	0.00923652	-0.174462	0	0
62.8756	0.00933196	-0.0744064	0	0
78.3542	0.00925561	-0.0111624	0	0
98.3542	0.00925561	-0.00510515	0	0
118.354	0.00935105	-0.00324919	0	0
138.354	0.00937014	-0.00246706	0	0
158.354	0.00931287	-0.00194841	0	0
178.354	0.00923652	-0.0016513	0	0
198.354	0.00931287	-0.00140716	0	0
218.354	0.00935105	-0.00123594	0	0
238.354	0.00925561	-0.00113368	0	0
258.354	0.00923652	-0.00102848	0	0
278.354	0.00925561	-0.00095016	0	0
298.354	0.00925561	-0.000899028	0	0
318.354	0.00917926	-0.000870692	0	0
338.354	0.0092747	-0.000785748	0	0
358.354	0.00929379	-0.000780845	0	0
378.354	0.00933196	-0.000718506	0	0
398.354	0.0092747	-0.000699721	0	0
418.354	0.00917926	-0.000684757	0	0
438.354	0.00929379	-0.000681828	0	0
458.354	0.00921743	-0.000604716	0	0
478.354	0.00925561	-0.000624456	0	0
498.354	0.00923652	-0.000540785	0	0
518.354	0.00917926	-0.000570331	0	0
538.354	0.00916017	-0.00057638	0	0
558.354	0.00921743	-0.000533908	0	0
578.354	0.0092747	-0.000506273	0	0
598.354	0.00933196	-0.000494556	0	0
618.354	0.00925561	-0.000470359	0	0
638.354	0.00919835	-0.000480102	0	0
658.354	0.00917926	-0.000445908	0	0
678.354	0.0092747	-0.000467367	0	0
698.354	0.0092747	-0.000478064	0	0
718.354	0.00925561	-0.000404709	0	0
738.354	0.00921743	-0.000411077	0	0
758.354	0.00923652	-0.000400315	0	0
778.354	0.00925561	-0.000401907	0	0
798.354	0.00917926	-0.000445653	0	0
818.354	0.00929379	-0.000395412	0	0
838.354	0.00933196	-0.000393757	0	0
858.354	0.00925561	-0.000397259	0	0
878.354	0.00923652	-0.000367586	0	0
898.354	0.00925561	-0.000359372	0	0
918.354	0.0092747	-0.000377647	0	0
938.354	0.00937014	-0.000385479	0	0
958.354	0.00925561	-0.000362364	0	0
978.354	0.00917926	-0.000325177	0	0
998.354	0.00916017	-0.000348419	0	0
1018.35	0.00933196	-0.000359754	0	0
1038.35	0.00925561	-0.000369432	0	0
1058.35	0.00935105	-0.000348738	0	0
1078.35	0.00933196	-0.000334665	0	0
1098.35	0.00929379	-0.000349247	0	0
1118.35	0.00923652	-0.000334283	0	0
1138.35	0.00935105	-0.000331227	0	0
1158.35	0.0092747	-0.000338613	0	0
1178.35	0.00914108	-0.000363447	0	0
1198.35	0.0092747	-0.000312442	0	0
1218.35	0.00923652	-0.000333137	0	0
1238.35	0.00921743	-0.000326897	0	0
1258.35	0.00929379	-0.000294485	0	0
1278.35	0.00919835	-0.000269843	0	0
1298.35	0.00917926	-0.000299006	0	0
1318.35	0.00933196	-0.000276529	0	0
1338.35	0.00916017	-0.000305438	0	0
1358.35	0.00931287	-0.000266786	0	0
1378.35	0.00919835	-0.00027933	0	0
1398.35	0.00929379	-0.000250804	0	0
1418.35	0.00917926	-0.0002601	0	0
1438.35	0.00933196	-0.000288882	0	0
1458.35	0.00931287	-0.000245455	0	0
1478.35	0.00929379	-0.000268824	0	0
1498.35	0.00921743	-0.000242653	0	0
1518.35	0.00919835	-0.000285316	0	0
1538.35	0.00925561	-0.000272326	0	0
1558.35	0.00925561	-0.000229408	0	0
1578.35	0.00919835	-0.000282387	0	0
1598.35	0.00923652	-0.000239214	0	0
1618.35	0.00921743	-0.000264749	0	0
1638.35	0.00935105	-0.000251695	0	0
1658.35	0.00931287	-0.000229854	0	0
1678.35	0.00929379	-0.000260419	0	0
1698.35	0.00916017	-0.000244945	0	0
1718.35	0.00921743	-0.000228899	0	0
1738.35	0.00925561	-0.000258063	0	0
1758.35	0.00929379	-0.000241889	0	0
1778.35	0.00925561	-0.000233738	0	0
1798.35	0.00921743	-0.000243099	0	0
1818.35	0.00931287	-0.000233356	0	0
1838.35	0.0092747	-0.000250485	0	0
1858.35	0.00923652	-0.000240997	0	0
1860.05	0.00917926	-0.000229599	0	0