File: EXPERIMENTAL/DATA/Electrochemical-cycling/S-series/2024-06-19_S07_Icell_t1800_C0003_J01_04_CP_C09.txt
time/s	Ewe/V	I/mA	error	Ece/V
1860.21	-0.00368934	-0.194647	0	-0.00158786
1860.21	-0.0139328	-0.195982	0	0.000177165
1860.21	-0.0174639	-0.19598	0	0.00015808
1860.21	-0.0202697	-0.195984	0	-3.27727e-05
1860.21	-0.0229609	-0.195982	0	8.1739e-05
1860.21	-0.0255949	-0.195984	0	-1.36875e-05
1860.21	-0.0279808	-0.195982	0	4.35684e-05
1860.21	-0.0302712	-0.195983	0	4.35684e-05
1860.21	-0.0326761	-0.195981	0	5.39784e-06
1860.21	-0.0347757	-0.195982	0	8.1739e-05
1860.21	-0.0369898	-0.195983	0	5.39784e-06
1860.21	-0.0401009	-0.195987	0	5.39784e-06
1860.21	-0.0441282	-0.195987	0	0.00011991
1860.21	-0.047144	-0.195983	0	5.39784e-06
1860.21	-0.0508277	-0.195991	0	6.26537e-05
1860.21	-0.0547214	-0.19598	0	-1.36875e-05
1860.21	-0.05747	-0.195987	0	0.000100824
1860.21	-0.0608674	-0.19598	0	5.39784e-06
1860.22	-0.0643985	-0.195984	0	0.000138995
1860.22	-0.0677196	-0.195989	0	0.000138995
1860.22	-0.0709644	-0.195985	0	0.000100824
1860.22	-0.0741328	-0.195989	0	0.000138995
1860.22	-0.0773394	-0.195984	0	8.1739e-05
1860.22	-0.0802215	-0.195982	0	2.44831e-05
1860.22	-0.083199	-0.19598	0	0.000100824
1860.22	-0.0861575	-0.19598	0	2.44831e-05
1860.22	-0.0889251	-0.195987	0	4.35684e-05
1860.22	-0.09154	-0.195985	0	0.000100824
1860.22	-0.094403	-0.195985	0	-3.27727e-05
1860.22	-0.0968461	-0.195981	0	6.26537e-05
1860.23	-0.0995183	-0.19598	0	0.00011991
1860.23	-0.102038	-0.19598	0	0.000100824
1860.23	-0.104462	-0.195985	0	4.35684e-05
1860.23	-0.106771	-0.195989	0	4.35684e-05
1860.23	-0.1091	-0.195983	0	6.26537e-05
1860.23	-0.111409	-0.195985	0	5.39784e-06
1860.23	-0.113757	-0.195987	0	8.1739e-05
1860.23	-0.115799	-0.195988	0	-1.36875e-05
1860.23	-0.117937	-0.195987	0	6.26537e-05
1860.23	-0.120056	-0.195985	0	8.1739e-05
1860.23	-0.123091	-0.195985	0	5.39784e-06
1860.23	-0.126049	-0.195986	0	4.35684e-05
1860.24	-0.128931	-0.195985	0	2.44831e-05
1860.24	-0.131699	-0.195977	0	0.000100824
1860.24	-0.133989	-0.195978	0	6.26537e-05
1860.24	-0.13649	-0.195989	0	8.1739e-05
1860.24	-0.139104	-0.195987	0	6.26537e-05
1860.24	-0.141357	-0.195985	0	0.00015808
1860.24	-0.143876	-0.195993	0	8.1739e-05
1860.24	-0.146205	-0.195982	0	2.44831e-05
1860.25	-0.148457	-0.195989	0	-0.000109114
1860.25	-0.150652	-0.195985	0	0.000138995
1860.25	-0.152752	-0.195984	0	-1.36875e-05
1860.25	-0.155156	-0.195985	0	8.1739e-05
1860.25	-0.157199	-0.195985	0	-5.1858e-05
1860.25	-0.159413	-0.195989	0	8.1739e-05
1860.25	-0.16178	-0.195987	0	0.000138995
1860.25	-0.163917	-0.19598	0	5.39784e-06
1860.26	-0.16638	-0.195984	0	0.000138995
1860.26	-0.168517	-0.195989	0	6.26537e-05
1860.26	-0.170693	-0.195991	0	0.00015808
1860.26	-0.172869	-0.195982	0	8.1739e-05
1860.26	-0.175007	-0.195978	0	4.35684e-05
1860.26	-0.177374	-0.195982	0	-3.27727e-05
1860.27	-0.179664	-0.195981	0	6.26537e-05
1860.27	-0.18205	-0.195986	0	4.35684e-05
1860.27	-0.184321	-0.195986	0	8.1739e-05
1860.27	-0.186402	-0.195978	0	0.000138995
1860.28	-0.188558	-0.195985	0	-7.09433e-05
1860.28	-0.190773	-0.195984	0	4.35684e-05
1860.28	-0.192796	-0.195986	0	6.26537e-05
1860.29	-0.192758	-0.195982	0	5.39784e-06
1860.3	-0.190582	-0.195991	0	6.26537e-05
1860.3	-0.188291	-0.195987	0	-3.27727e-05
1860.3	-0.186134	-0.195991	0	6.26537e-05
1860.3	-0.183978	-0.195986	0	4.35684e-05
1860.31	-0.181744	-0.195989	0	5.39784e-06
1860.31	-0.179034	-0.195987	0	8.1739e-05
1860.31	-0.176667	-0.195986	0	6.26537e-05
1860.31	-0.17411	-0.195987	0	8.1739e-05
1860.31	-0.171552	-0.195986	0	-1.36875e-05
1860.31	-0.169128	-0.195985	0	4.35684e-05
1860.31	-0.16678	-0.195987	0	2.44831e-05
1860.32	-0.1647	-0.195988	0	-5.1858e-05
1860.32	-0.162352	-0.195985	0	2.44831e-05
1860.32	-0.159985	-0.195981	0	4.35684e-05
1860.32	-0.157447	-0.195984	0	2.44831e-05
1860.32	-0.154813	-0.195987	0	0.000100824
1860.32	-0.152752	-0.195985	0	8.1739e-05
1860.32	-0.150175	-0.195982	0	6.26537e-05
1860.33	-0.147942	-0.195986	0	8.1739e-05
1860.33	-0.145556	-0.195989	0	4.35684e-05
1860.33	-0.143094	-0.195992	0	0.000177165
1860.33	-0.140899	-0.195985	0	4.35684e-05
1860.33	-0.138646	-0.195982	0	4.35684e-05
1860.33	-0.13628	-0.195983	0	2.44831e-05
1860.34	-0.133779	-0.195988	0	2.44831e-05
1860.34	-0.131393	-0.195982	0	-3.27727e-05
1860.34	-0.129275	-0.195988	0	4.35684e-05
1860.34	-0.126965	-0.195984	0	0.000100824
1860.34	-0.124751	-0.195989	0	8.1739e-05
1860.35	-0.122556	-0.195989	0	4.35684e-05
1860.35	-0.120323	-0.195984	0	-3.27727e-05
1860.35	-0.118033	-0.195987	0	8.1739e-05
1860.36	-0.115666	-0.195981	0	2.44831e-05
1860.36	-0.113547	-0.195985	0	4.35684e-05
1860.37	-0.111524	-0.195986	0	4.35684e-05
1860.37	-0.109482	-0.195985	0	0.000100824
1860.38	-0.107248	-0.195989	0	8.1739e-05
1860.38	-0.105187	-0.19599	0	5.39784e-06
1860.39	-0.103107	-0.195989	0	4.35684e-05
1860.4	-0.101007	-0.195991	0	-1.36875e-05
1860.42	-0.0987357	-0.195986	0	4.35684e-05
1860.45	-0.0966362	-0.195991	0	-3.27727e-05
1860.49	-0.0945748	-0.195984	0	6.26537e-05
1860.58	-0.0925516	-0.195986	0	8.1739e-05
1861.72	-0.0945939	-0.195985	0	-1.36875e-05
1862.61	-0.0966744	-0.195988	0	8.1739e-05
1863.89	-0.0987166	-0.195986	0	-3.27727e-05
1865.71	-0.100797	-0.19599	0	0.00015808
1868.2	-0.102839	-0.195983	0	5.39784e-06
1871.01	-0.104366	-0.195985	0	8.1739e-05