File: EXPERIMENTAL/DATA/Electrochemical-cycling/S-series/2024-06-14_S01_Icell_t0012_C0500_J01_deltaX-110,1mm_04_CP_C06.txt
time/s	Ewe/V	I/mA	error
72.2058	0.0434758	-0.194766	0
72.2062	0.0310392	-0.195983	0
72.2066	0.0273353	-0.19598	0
72.2072	0.0245097	-0.195982	0
72.208	0.0217223	-0.195983	0
72.2088	0.0193931	-0.195987	0
72.21	0.0163766	-0.195983	0
72.2112	0.0135701	-0.195983	0
72.2124	0.0109545	-0.195983	0
72.2136	0.00854892	-0.195987	0
72.2148	0.0062197	-0.195982	0
72.216	0.00385231	-0.195979	0
72.2174	0.00125581	-0.195982	0
72.2188	-0.00116886	-0.195987	0
72.2204	-0.00368899	-0.195985	0
72.2218	-0.0060182	-0.195987	0
72.2232	-0.00829014	-0.195978	0
72.2246	-0.010543	-0.195978	0
72.2262	-0.0127385	-0.195986	0
72.2278	-0.0150869	-0.195981	0
72.2294	-0.0173588	-0.195984	0
72.2312	-0.0197071	-0.19598	0
72.233	-0.0221127	-0.195982	0
72.2346	-0.0243273	-0.195978	0
72.2364	-0.0265993	-0.195981	0
72.2384	-0.0290048	-0.195984	0
72.2404	-0.0312195	-0.195985	0
72.2424	-0.033606	-0.195989	0
72.2446	-0.0359925	-0.195974	0
72.2466	-0.0381308	-0.195984	0
72.2488	-0.0403645	-0.19598	0
72.251	-0.0426556	-0.19598	0
72.2534	-0.0449848	-0.195985	0
72.256	-0.0472185	-0.195978	0
72.2584	-0.0493377	-0.19598	0
72.261	-0.0515715	-0.195983	0
72.2636	-0.0537861	-0.19598	0
72.2664	-0.0560008	-0.195983	0
72.2694	-0.0581773	-0.195985	0
72.2724	-0.0603919	-0.195983	0
72.2756	-0.0627211	-0.195989	0
72.2792	-0.0649358	-0.195986	0
72.2828	-0.0671695	-0.195987	0
72.2864	-0.0692887	-0.195987	0
72.2902	-0.0713698	-0.195986	0
72.2942	-0.0735081	-0.195982	0
72.2986	-0.0756845	-0.195977	0
72.3038	-0.0779183	-0.19598	0
72.3082	-0.0799611	-0.195983	0
72.3136	-0.0821758	-0.19598	0
72.3196	-0.0843904	-0.195983	0
72.3256	-0.0864905	-0.195983	0
72.3324	-0.0885525	-0.19598	0
72.3396	-0.0906144	-0.195983	0
72.3474	-0.0926763	-0.195981	0
72.3554	-0.0947001	-0.195984	0
72.3648	-0.0968383	-0.195978	0
72.375	-0.0989003	-0.195985	0
72.3858	-0.100981	-0.195989	0
72.3986	-0.103062	-0.195982	0
72.4114	-0.105143	-0.195985	0
72.4272	-0.10732	-0.195985	0
72.4438	-0.109439	-0.19599	0
72.4622	-0.111558	-0.195986	0
72.4814	-0.11362	-0.195987	0
72.5028	-0.115682	-0.195989	0
72.5262	-0.117782	-0.195974	0
72.5526	-0.119863	-0.19598	0
72.5782	-0.121944	-0.195985	0
72.6082	-0.124063	-0.195982	0
72.6394	-0.126087	-0.195985	0
72.6704	-0.12813	-0.195987	0
72.704	-0.13023	-0.195983	0
72.7414	-0.132292	-0.195988	0
72.7782	-0.134335	-0.195988	0
72.818	-0.136454	-0.195982	0
72.8612	-0.138535	-0.195982	0
72.8998	-0.140578	-0.195983	0
72.9472	-0.142621	-0.19599	0
72.9938	-0.144644	-0.19599	0
73.0422	-0.146687	-0.195983	0
73.0926	-0.14873	-0.195983	0
73.1512	-0.150888	-0.195978	0
73.2124	-0.15293	-0.195977	0
73.2806	-0.15503	-0.195983	0
73.36	-0.157054	-0.195978	0
73.4606	-0.159078	-0.195987	0
73.8852	-0.159078	-0.195985	0
74.0248	-0.157054	-0.195984	0
74.1542	-0.154992	-0.195982	0
74.2756	-0.152949	-0.195985	0
74.3952	-0.150907	-0.195986	0
74.5434	-0.148845	-0.195981	0
74.7086	-0.146821	-0.19598	0
74.9008	-0.144702	-0.195986	0
75.1426	-0.14264	-0.195985	0
75.4346	-0.140597	-0.195986	0
75.808	-0.138573	-0.195983	0
76.3122	-0.136511	-0.195988	0
77.0954	-0.134468	-0.195982	0
78.2406	-0.132445	-0.195992	0
80.3752	-0.130421	-0.195992	0
84.4736	-0.128359	-0.195992	0
94.3994	-0.126335	-0.195982	0
112.287	-0.124579	-0.195987	0
132.287	-0.123109	-0.195985	0
152.287	-0.121772	-0.195989	0
172.287	-0.120646	-0.195989	0
192.287	-0.119424	-0.195996	0
212.287	-0.11845	-0.195992	0
232.287	-0.117324	-0.195991	0
252.287	-0.116408	-0.195985	0
272.287	-0.115491	-0.19599	0
292.287	-0.114479	-0.195988	0
312.287	-0.113677	-0.195983	0
332.287	-0.112876	-0.19599	0
352.287	-0.112188	-0.195989	0
372.287	-0.111253	-0.195982	0
392.287	-0.110642	-0.195991	0
412.287	-0.109878	-0.195989	0
432.287	-0.109305	-0.19599	0
452.287	-0.108637	-0.195989	0
472.287	-0.107873	-0.19599	0
492.287	-0.107377	-0.195983	0
512.287	-0.106766	-0.195988	0
532.287	-0.106308	-0.195991	0
552.287	-0.105831	-0.195987	0
572.287	-0.105239	-0.195989	0
592.287	-0.104628	-0.195983	0
612.287	-0.104399	-0.195986	0
632.287	-0.103826	-0.195991	0
652.287	-0.103616	-0.195989	0
672.287	-0.103024	-0.19598	0
692.287	-0.102757	-0.195989	0
712.287	-0.10228	-0.19599	0
732.287	-0.101955	-0.195987	0
752.287	-0.10163	-0.195993	0
772.287	-0.101306	-0.19598	0
792.287	-0.101058	-0.195984	0
812.287	-0.100599	-0.19599	0
832.287	-0.100294	-0.195988	0
852.287	-0.0999885	-0.195985	0
872.287	-0.0997212	-0.195987	0
892.287	-0.0994158	-0.195983	0
912.287	-0.0990721	-0.195992	0
932.287	-0.0985566	-0.19599	0
952.287	-0.0984612	-0.195987	0
972.287	-0.0980984	-0.19599	0
992.287	-0.0979266	-0.195984	0
1012.29	-0.0976402	-0.195989	0
1032.29	-0.0975447	-0.195987	0
1052.29	-0.0970102	-0.195988	0
1072.29	-0.0966474	-0.195983	0
1092.29	-0.0965329	-0.195987	0
1112.29	-0.096342	-0.195988	0
1132.29	-0.0959219	-0.195992	0
1152.29	-0.0957501	-0.195992	0
1172.29	-0.0955401	-0.195987	0
1192.29	-0.095311	-0.195982	0
1212.29	-0.0950246	-0.195985	0
1232.29	-0.0947001	-0.195993	0
1252.29	-0.0944137	-0.195993	0
1272.29	-0.0943755	-0.19599	0
1292.29	-0.0941082	-0.195987	0
1312.29	-0.0939746	-0.195987	0
1332.29	-0.0936882	-0.195988	0
1352.29	-0.0932873	-0.19599	0
1372.29	-0.0930963	-0.195988	0
1392.29	-0.0929436	-0.195991	0
1412.29	-0.0927718	-0.195985	0
1432.29	-0.0925236	-0.195988	0
1452.29	-0.0922754	-0.195984	0
1472.29	-0.0920845	-0.195985	0
1492.29	-0.091989	-0.195989	0
1512.29	-0.0917026	-0.195984	0
1532.29	-0.0916263	-0.195986	0
1552.29	-0.091359	-0.195985	0
1572.29	-0.0910726	-0.195985	0
1592.29	-0.0909771	-0.195985	0
1612.29	-0.0907289	-0.195993	0
1632.29	-0.0905953	-0.195986	0
1652.29	-0.090328	-0.195987	0
1672.29	-0.0901562	-0.195987	0
1692.29	-0.0900034	-0.19599	0
1712.29	-0.0897934	-0.195987	0
1732.29	-0.0895834	-0.195987	0
1752.29	-0.0895071	-0.195984	0
1772.29	-0.0891825	-0.195986	0
1792.29	-0.0891443	-0.195987	0
1812.29	-0.0889152	-0.195994	0
1832.29	-0.0887434	-0.195987	0
1852.29	-0.0885143	-0.195991	0
1872.21	-0.0883425	-0.195983	0