File: EXPERIMENTAL/DATA/Electrochemical-cycling/S-series/2024-06-25_S15_Icell_t1800_C0030_J01_deltaX-110,2mm_02_MB_C04.txt
time/s	Ewe/V	I/mA	error
60.053	2.93585	-0.0250249	0
60.1436	0.0092509	-9.70545	0
60.1444	0.00926999	-9.58664	0
60.1452	0.0092509	-9.47057	0
60.146	0.00940363	-9.35819	0
60.1468	0.00923181	-9.24682	0
60.1476	0.00930818	-9.13845	0
60.1484	0.00926999	-9.03154	0
60.1492	0.00944181	-8.9273	0
60.15	0.00930818	-8.82529	0
60.1508	0.00936545	-8.725	0
60.152	0.00930818	-8.57902	0
60.1532	0.00926999	-8.43749	0
60.1544	0.00934635	-8.30048	0
60.1556	0.00938454	-8.16716	0
60.1568	0.00932727	-8.03791	0
60.158	0.00932727	-7.91236	0
60.1592	0.00932727	-7.78973	0
60.1604	0.00932727	-7.67232	0
60.1616	0.00936545	-7.55631	0
60.1628	0.00934635	-7.44552	0
60.164	0.00936545	-7.33721	0
60.1652	0.00928908	-7.23259	0
60.1664	0.00938454	-7.12994	0
60.168	0.00926999	-6.99898	0
60.1696	0.0092509	-6.87234	0
60.1712	0.00932727	-6.74997	0
60.1728	0.00944181	-6.63249	0
60.1744	0.00928908	-6.51884	0
60.176	0.00923181	-6.40996	0
60.1776	0.00932727	-6.3033	0
60.1792	0.00932727	-6.20244	0
60.181	0.00938454	-6.09063	0
60.183	0.0092509	-5.97328	0
60.185	0.00938454	-5.85886	0
60.187	0.00942272	-5.74922	0
60.189	0.00936545	-5.64441	0
60.1912	0.00928908	-5.53241	0
60.1936	0.00928908	-5.41722	0
60.196	0.00940363	-5.30656	0
60.1984	0.00930818	-5.1992	0
60.2008	0.00940363	-5.09681	0
60.2036	0.00932727	-4.98303	0
60.2064	0.00928908	-4.87497	0
60.2092	0.00934635	-4.76953	0
60.2124	0.00944181	-4.65715	0
60.2156	0.00926999	-4.55011	0
60.2188	0.00936545	-4.44714	0
60.2224	0.00930818	-4.33782	0
60.226	0.00938454	-4.23402	0
60.23	0.00938454	-4.12482	0
60.234	0.00932727	-4.02231	0
60.2382	0.00936545	-3.91851	0
60.2426	0.00938454	-3.81657	0
60.2474	0.00934635	-3.71176	0
60.2524	0.00944181	-3.60809	0
60.2578	0.0094609	-3.50392	0
60.2634	0.00936545	-3.40121	0
60.2694	0.00938454	-3.29825	0
60.2756	0.00936545	-3.19668	0
60.2822	0.00942272	-3.09556	0
60.2894	0.00930818	-2.99304	0
60.297	0.00930818	-2.89027	0
60.3052	0.00921272	-2.78858	0
60.314	0.00928908	-2.6858	0
60.3236	0.00932727	-2.58335	0
60.3338	0.00934635	-2.48191	0
60.345	0.00923181	-2.3799	0
60.3572	0.00938454	-2.27904	0
60.3704	0.00944181	-2.17824	0
60.3854	0.00934635	-2.07534	0
60.4022	0.00936545	-1.97205	0
60.4202	0.00932727	-1.87164	0
60.4406	0.00936545	-1.76988	0
60.4632	0.00930818	-1.66921	0
60.4888	0.00934635	-1.5686	0
60.5176	0.00942272	-1.46792	0
60.5504	0.00936545	-1.36731	0
60.5884	0.00942272	-1.26613	0
60.6314	0.0094609	-1.16539	0
60.6818	0.00934635	-1.06529	0
60.7422	0.00928908	-0.964494	0
60.813	0.00936545	-0.864393	0
60.8996	0.00921272	-0.764101	0
61.0086	0.00921272	-0.663364	0
61.1478	0.00923181	-0.563136	0
61.337	0.00930818	-0.462527	0
61.6288	0.00930818	-0.357128	0
62.0834	0.00940363	-0.256958	0
63.0208	0.00942272	-0.156782	0
66.5148	0.00942272	-0.056707	0
86.5148	0.00938454	-0.00911896	0
106.515	0.00919363	-0.00483853	0
126.515	0.00944181	-0.00329999	0
146.515	0.00934635	-0.00261002	0
166.515	0.00938454	-0.00219204	0
186.515	0.00928908	-0.0018772	0
206.515	0.00938454	-0.00171118	0
226.515	0.00932727	-0.00154688	0
246.515	0.00942272	-0.00143924	0
266.515	0.00942272	-0.00136679	0
286.515	0.00938454	-0.00127952	0
306.515	0.00921272	-0.00119511	0
326.515	0.00932727	-0.00112356	0
346.515	0.00938454	-0.00110045	0
366.515	0.00930818	-0.00106226	0
386.515	0.00926999	-0.00100051	0
406.515	0.0094609	-0.000952387	0
426.515	0.00942272	-0.000926478	0
446.515	0.00928908	-0.000930043	0
466.515	0.00936545	-0.000885865	0
486.515	0.00926999	-0.000836404	0
506.515	0.00942272	-0.000828447	0
526.515	0.00940363	-0.000803048	0
546.515	0.00940363	-0.000801011	0
566.515	0.00940363	-0.000786433	0
586.515	0.00934635	-0.000767145	0
606.515	0.00944181	-0.000737417	0
626.515	0.00938454	-0.000718957	0
646.515	0.00921272	-0.000707944	0
666.515	0.00940363	-0.000675479	0
686.515	0.00926999	-0.000667395	0
706.515	0.00938454	-0.000667522	0
726.515	0.00938454	-0.00064817	0
746.515	0.00934635	-0.000646069	0
766.515	0.00936545	-0.000615641	0
786.515	0.00936545	-0.00063633	0
806.515	0.00928908	-0.000620734	0
826.515	0.00938454	-0.000611695	0
846.515	0.00942272	-0.000568344	0
866.515	0.00930818	-0.000586741	0
886.515	0.00944181	-0.000593616	0
906.515	0.00934635	-0.000546064	0
926.515	0.00942272	-0.000565607	0
946.515	0.00928908	-0.000531678	0
966.515	0.00940363	-0.000552303	0
986.515	0.00951817	-0.000529386	0
1006.51	0.00934635	-0.000543964	0
1026.51	0.00938454	-0.000518564	0
1046.51	0.00938454	-0.000495584	0
1066.51	0.00940363	-0.000514108	0
1086.51	0.00936545	-0.00050004	0
1106.51	0.00932727	-0.00050074	0
1126.51	0.00930818	-0.000478524	0
1146.51	0.00928908	-0.000493229	0
1166.51	0.00930818	-0.000489346	0
1186.51	0.00926999	-0.000479797	0
1206.51	0.00938454	-0.000441667	0
1226.51	0.0092509	-0.000463437	0
1246.51	0.00930818	-0.00044746	0
1266.51	0.00923181	-0.000480179	0
1286.51	0.00942272	-0.000433009	0
1306.51	0.00934635	-0.000428299	0
1326.51	0.00944181	-0.000429381	0
1346.51	0.00934635	-0.000420533	0
1366.51	0.00926999	-0.000421933	0
1386.51	0.00936545	-0.000423079	0
1406.51	0.00940363	-0.000410348	0
1426.51	0.00936545	-0.000412576	0
1446.51	0.00938454	-0.000398507	0
1466.51	0.00934635	-0.000395515	0
1486.51	0.00934635	-0.00039176	0
1506.51	0.00942272	-0.000390614	0
1526.51	0.00938454	-0.000396216	0
1546.51	0.00940363	-0.000385394	0
1566.51	0.00921272	-0.000384821	0
1586.51	0.00934635	-0.000382529	0
1606.51	0.00932727	-0.000364196	0
1626.51	0.00926999	-0.000367825	0
1646.51	0.00940363	-0.000373172	0
1666.51	0.00934635	-0.000358594	0
1686.51	0.00936545	-0.000352993	0
1706.51	0.00930818	-0.000348791	0
1726.51	0.00932727	-0.000347327	0
1746.51	0.00934635	-0.000354457	0
1766.51	0.00928908	-0.000352292	0
1786.51	0.00936545	-0.00033746	0
1806.51	0.00932727	-0.000329248	0
1826.51	0.00932727	-0.000337206	0
1846.51	0.00934635	-0.000329503	0
1860.05	0.00930818	-0.000336442	0