File: EXPERIMENTAL/DATA/Electrochemical-cycling/S-series/2024-06-14_S01_Icell_t0012_C0500_J01_deltaX-110,1mm_02_MB_C06.txt
time/s	Ewe/V	I/mA	error
60.053	2.38431	-0.0250234	0
60.1432	0.00938945	-8.51784	0
60.1436	0.00937036	-8.46342	0
60.1442	0.00948491	-8.38723	0
60.1448	0.00948491	-8.31301	0
60.1452	0.00948491	-8.26215	0
60.1456	0.00944673	-8.21142	0
60.146	0.00946582	-8.15897	0
60.1466	0.00940854	-8.08113	0
60.1472	0.00942764	-8.0057	0
60.1478	0.00933218	-7.93581	0
60.1484	0.0095231	-7.87089	0
60.149	0.009504	-7.79686	0
60.1496	0.0095231	-7.72964	0
60.1502	0.00938945	-7.66179	0
60.1508	0.00944673	-7.59362	0
60.1514	0.00944673	-7.52698	0
60.152	0.00937036	-7.46212	0
60.1526	0.00944673	-7.40088	0
60.1532	0.00938945	-7.33252	0
60.1538	0.00942764	-7.26543	0
60.1544	0.00942764	-7.20293	0
60.155	0.00942764	-7.14125	0
60.1556	0.00937036	-7.07683	0
60.1562	0.00946582	-7.02101	0
60.1568	0.00948491	-6.96283	0
60.1574	0.009504	-6.90421	0
60.158	0.00940854	-6.84482	0
60.1586	0.00956128	-6.79021	0
60.1592	0.0095231	-6.73916	0
60.16	0.00956128	-6.6764	0
60.1606	0.00935127	-6.6214	0
60.1612	0.00946582	-6.56564	0
60.1618	0.00940854	-6.50632	0
60.1624	0.00948491	-6.45553	0
60.163	0.00946582	-6.3934	0
60.1638	0.00942764	-6.3323	0
60.1644	0.00946582	-6.27883	0
60.165	0.00948491	-6.22855	0
60.1658	0.00946582	-6.16585	0
60.1666	0.00948491	-6.10487	0
60.1674	0.00937036	-6.04096	0
60.168	0.00935127	-5.98877	0
60.1688	0.00931308	-5.93384	0
60.1696	0.009504	-5.87719	0
60.1704	0.00942764	-5.81258	0
60.1712	0.00942764	-5.75816	0
60.172	0.00954219	-5.69966	0
60.1728	0.00938945	-5.64556	0
60.1736	0.00946582	-5.58955	0
60.1744	0.00948491	-5.53742	0
60.1752	0.00937036	-5.48465	0
60.176	0.00940854	-5.42984	0
60.177	0.00937036	-5.37148	0
60.178	0.00938945	-5.31164	0
60.1788	0.00942764	-5.26072	0
60.1798	0.00940854	-5.20452	0
60.1806	0.00933218	-5.15436	0
60.1816	0.00948491	-5.09726	0
60.1826	0.00942764	-5.04093	0
60.1836	0.009504	-4.98473	0
60.1846	0.00944673	-4.93279	0
60.1856	0.00935127	-4.8783	0
60.1866	0.00944673	-4.82388	0
60.1876	0.00944673	-4.77016	0
60.1888	0.00942764	-4.71453	0
60.19	0.00935127	-4.65635	0
60.191	0.00948491	-4.60568	0
60.1922	0.009504	-4.54731	0
60.1934	0.00948491	-4.49467	0
60.1946	0.009504	-4.43802	0
60.1958	0.00942764	-4.3871	0
60.197	0.00948491	-4.3337	0
60.1984	0.00946582	-4.27711	0
60.1996	0.00944673	-4.22664	0
60.201	0.00933218	-4.17253	0
60.2024	0.00938945	-4.11728	0
60.2038	0.00940854	-4.06267	0
60.2052	0.00937036	-4.00818	0
60.2068	0.009504	-3.95402	0
60.2082	0.00954219	-3.90354	0
60.2098	0.00948491	-3.84893	0
60.2114	0.00946582	-3.79399	0
60.213	0.00938945	-3.74123	0
60.2148	0.00942764	-3.68674	0
60.2166	0.00948491	-3.62971	0
60.2184	0.00946582	-3.57732	0
60.2202	0.00937036	-3.52367	0
60.222	0.00946582	-3.47357	0
60.2268	0.00942764	-3.42131	0
60.2288	0.00948491	-3.36594	0
60.2308	0.00946582	-3.31221	0
60.2328	0.00933218	-3.26104	0
60.235	0.00940854	-3.20725	0
60.2372	0.00938945	-3.15512	0
60.2394	0.00940854	-3.10382	0
60.2418	0.009504	-3.05022	0
60.2442	0.00942764	-2.99994	0
60.2468	0.0095231	-2.94654	0
60.2494	0.009504	-2.89517	0
60.252	0.009504	-2.84425	0
60.2548	0.00946582	-2.79275	0
60.2576	0.00948491	-2.74228	0
60.2606	0.00942764	-2.69072	0
60.2638	0.00946582	-2.63744	0
60.267	0.00935127	-2.58678	0
60.2704	0.00940854	-2.53579	0
60.274	0.00944673	-2.48372	0
60.2778	0.00946582	-2.43172	0
60.2816	0.009504	-2.38137	0
60.2856	0.00935127	-2.33051	0
60.2898	0.00946582	-2.27978	0
60.2942	0.00937036	-2.22912	0
60.2988	0.00938945	-2.17909	0
60.3038	0.0095231	-2.12747	0
60.309	0.00938945	-2.07667	0
60.3144	0.00946582	-2.0255	0
60.3204	0.00954219	-1.97337	0
60.3264	0.00944673	-1.92244	0
60.333	0.00937036	-1.87171	0
60.3398	0.00938945	-1.82117	0
60.347	0.00948491	-1.77102	0
60.3546	0.00944673	-1.72099	0
60.3628	0.00946582	-1.67	0
60.3716	0.00938945	-1.61882	0
60.381	0.00954219	-1.56829	0
60.3912	0.00958037	-1.51615	0
60.4022	0.009504	-1.46562	0
60.4138	0.00940854	-1.41527	0
60.4264	0.00942764	-1.36409	0
60.4398	0.00937036	-1.3133	0
60.4544	0.00946582	-1.26231	0
60.4702	0.00948491	-1.21203	0
60.4868	0.00946582	-1.16187	0
60.5052	0.00948491	-1.11184	0
60.5252	0.00948491	-1.06136	0
60.547	0.00946582	-1.01127	0
60.5712	0.009504	-0.961176	0
60.5976	0.00942764	-0.911145	0
60.6272	0.00946582	-0.86086	0
60.6604	0.00944673	-0.810448	0
60.6976	0.00942764	-0.759909	0
60.7408	0.0095231	-0.709815	0
60.79	0.00958037	-0.659276	0
60.8468	0.00944673	-0.609182	0
60.9132	0.00961856	-0.55896	0
60.9956	0.00942764	-0.508867	0
61.093	0.00946582	-0.458773	0
61.2262	0.00937036	-0.408692	0
61.3878	0.00944673	-0.358681	0
61.6064	0.00942764	-0.308606	0
61.916	0.009504	-0.258512	0
62.3852	0.00946582	-0.208373	0
63.176	0.00956128	-0.158337	0
64.7618	0.00938945	-0.108306	0
69.3664	0.00944673	-0.0582312	0
72.0528	0.00942764	-0.0465844	0