File: EXPERIMENTAL/DATA/Electrochemical-cycling/S-series/2024-07-02_S20_Icell_t1800_C0010_J01_deltaX-110,2mm_plating-stripping_05_MB_C02.txt
time/s	Ewe/V	I/mA	error
1896.36	-0.0653749	0.194641	0	0
1896.58	-0.0202186	0.196029	0	0
1897.46	0.018397	0.196027	0	0
1901.18	0.0564209	0.19603	0	0
1923.93	0.0943303	0.196024	0	0
1925.3	0.132507	0.196028	0	0
1926.4	0.170932	0.196027	0	0
1929.09	0.209433	0.196035	0	0
1930.43	0.247781	0.196027	0	0
1930.9	0.286626	0.196026	0	0
1931.17	0.325604	0.196024	0	0
1931.35	0.36443	0.196034	0	0
1931.49	0.403885	0.196023	0	0
1931.6	0.444448	0.196028	0	0
1931.7	0.483942	0.196032	0	0
1931.8	0.52334	0.196021	0	0
1931.89	0.563082	0.196027	0	0
1931.98	0.602747	0.196025	0	0
1932.07	0.642967	0.196022	0	0
1932.16	0.683243	0.196028	0	0
1932.24	0.722851	0.196029	0	0
1932.33	0.763376	0.196028	0	0
1932.42	0.803385	0.196028	0	0
1932.51	0.843356	0.196023	0	0
1932.6	0.884166	0.196029	0	0
1932.69	0.923966	0.196034	0	0
1932.77	0.964051	0.196027	0	0
1969.06	-0.0551114	0.196028	0	0
1969.25	-0.0142249	0.196031	0	0
1970.19	0.0241235	0.196027	0	0
1981.81	0.0620138	0.196031	0	0
1996.91	0.100152	0.19602	0	0
1998.19	0.138443	0.196027	0	0
1998.98	0.176849	0.196027	0	0
1999.75	0.215312	0.196032	0	0
2000.19	0.253851	0.196024	0	0
2000.44	0.292944	0.196021	0	0
2000.62	0.332304	0.196029	0	0
2000.74	0.371244	0.196021	0	0
2000.85	0.412074	0.196024	0	0
2000.94	0.452083	0.196025	0	0
2001.02	0.492073	0.19603	0	0
2001.1	0.531777	0.19603	0	0
2001.18	0.572702	0.196027	0	0
2001.26	0.61212	0.196018	0	0
2001.34	0.65253	0.196021	0	0
2001.42	0.69252	0.196025	0	0
2001.49	0.732815	0.19603	0	0
2001.57	0.772481	0.196024	0	0
2001.65	0.812738	0.196025	0	0
2001.73	0.853091	0.196032	0	0
2001.81	0.89289	0.196023	0	0
2001.89	0.932861	0.196022	0	0
2001.97	0.972984	0.196023	0	0
2038.23	-0.0435827	0.196033	0	0
2038.53	-0.00439442	0.196035	0	0
2039.94	0.0338395	0.196027	0	0
2058.7	0.0719588	0.196025	0	0
2065.31	0.110078	0.196023	0	0
2066.16	0.148713	0.196021	0	0
2066.79	0.187462	0.196023	0	0
2067.46	0.225811	0.196028	0	0
2067.88	0.264293	0.196019	0	0
2068.12	0.303271	0.196019	0	0
2068.27	0.34223	0.196016	0	0
2068.39	0.381743	0.196029	0	0
2068.49	0.42158	0.196028	0	0
2068.58	0.462162	0.19602	0	0
2068.66	0.50282	0.196024	0	0
2068.74	0.542677	0.196027	0	0
2068.82	0.582476	0.196028	0	0
2068.9	0.623286	0.196025	0	0
2068.98	0.66299	0.19602	0	0
2069.05	0.70256	0.196022	0	0
2069.13	0.742436	0.196025	0	0
2069.2	0.782788	0.196026	0	0
2069.28	0.82337	0.19603	0	0
2069.36	0.863322	0.196016	0	0
2069.43	0.902682	0.196021	0	0
2069.51	0.943226	0.19602	0	0
2069.59	0.982567	0.196028	0	0
2105.84	-0.0346685	0.19603	0	0
2106.3	0.0042335	0.196032	0	0
2108.4	0.0423338	0.196027	0	0
2127.56	0.0801859	0.196032	0	0
2131.14	0.11842	0.196032	0	0
2131.84	0.156787	0.196017	0	0
2132.45	0.195193	0.19602	0	0
2133.08	0.233541	0.19602	0	0
2133.53	0.272405	0.196029	0	0
2133.79	0.311059	0.196027	0	0
2133.96	0.350591	0.196024	0	0
2134.09	0.390199	0.196022	0	0
2134.19	0.429407	0.196025	0	0
2134.28	0.468996	0.196021	0	0
2134.37	0.509406	0.19602	0	0
2134.45	0.549873	0.196023	0	0
2134.53	0.589901	0.196025	0	0
2134.61	0.630235	0.196024	0	0
2134.68	0.669518	0.196026	0	0
2134.76	0.709585	0.196025	0	0
2134.83	0.750147	0.196022	0	0
2134.91	0.790347	0.196028	0	0
2134.98	0.830815	0.196024	0	0
2135.06	0.870556	0.196027	0	0
2135.14	0.910985	0.196021	0	0
2135.21	0.951128	0.19602	0	0
2135.29	0.991156	0.19602	0	0
2171.56	-0.0281594	0.196032	0	0
2172.15	0.0100936	0.196027	0	0
2175.05	0.0485756	0.19603	0	0
2192.52	0.086485	0.196029	0	0
2195.22	0.124967	0.196029	0	0
2195.97	0.163487	0.196027	0	0
2196.67	0.201931	0.19603	0	0
2197.36	0.240165	0.196034	0	0
2197.81	0.279201	0.196027	0	0
2198.08	0.318236	0.196036	0	0
2198.26	0.357081	0.196025	0	0
2198.4	0.396403	0.196027	0	0
2198.51	0.435648	0.196034	0	0
2198.6	0.475295	0.196027	0	0
2198.69	0.514922	0.196028	0	0
2198.78	0.554588	0.196028	0	0
2198.86	0.595208	0.196031	0	0
2198.93	0.635427	0.196025	0	0
2199.01	0.6766	0.196023	0	0
2199.09	0.716571	0.196026	0	0
2199.16	0.756485	0.196038	0	0
2199.24	0.796589	0.196028	0	0
2199.31	0.836789	0.196017	0	0
2199.39	0.877199	0.196028	0	0
2199.46	0.917094	0.196021	0	0
2199.54	0.957275	0.196026	0	0
2199.61	0.997952	0.196023	0	0
2235.92	-0.0226238	0.196027	0	0
2236.67	0.0157628	0.196028	0	0
2240.4	0.0539776	0.196025	0	0
2255.67	0.0918107	0.196025	0	0
2258.03	0.129815	0.196028	0	0
2258.92	0.16803	0.196027	0	0
2259.79	0.206321	0.196023	0	0
2260.55	0.244498	0.196021	0	0
2261.03	0.283018	0.196022	0	0
2261.32	0.321978	0.196021	0	0
2261.52	0.361109	0.196024	0	0
2261.66	0.400564	0.196024	0	0
2261.78	0.44023	0.196025	0	0
2261.87	0.479895	0.196016	0	0
2261.97	0.520057	0.196025	0	0
2262.05	0.560352	0.196035	0	0
2262.13	0.599617	0.196019	0	0
2262.21	0.639302	0.196024	0	0
2262.29	0.679272	0.196029	0	0
2262.36	0.719186	0.196024	0	0
2262.44	0.758546	0.196029	0	0
2262.51	0.798574	0.196028	0	0
2262.59	0.838679	0.196034	0	0
2262.66	0.878344	0.196021	0	0
2262.73	0.919136	0.196023	0	0
2262.81	0.959413	0.196023	0	0
2262.89	0.999383	0.196023	0	0
2299.2	-0.0212876	0.196023	0	0
2300.01	0.0174235	0.196028	0	0
2303.96	0.0555238	0.196035	0	0
2317.29	0.0934904	0.19603	0	0
2319.97	0.131705	0.196034	0	0
2321.15	0.17013	0.19602	0	0
2322.24	0.208688	0.196032	0	0
2323.06	0.247094	0.196027	0	0
2323.56	0.285576	0.19603	0	0
2323.86	0.324688	0.196034	0	0
2324.06	0.364468	0.196021	0	0
2324.21	0.404134	0.196023	0	0
2324.33	0.443723	0.196019	0	0
2324.43	0.483675	0.196016	0	0
2324.52	0.523569	0.196021	0	0
2324.61	0.563597	0.196028	0	0
2324.69	0.603244	0.196032	0	0
2324.78	0.643768	0.196032	0	0
2324.86	0.684522	0.196026	0	0
2324.93	0.725104	0.196014	0	0
2325.01	0.765704	0.196028	0	0
2325.09	0.806401	0.196027	0	0
2325.16	0.846906	0.196028	0	0
2325.24	0.886992	0.196027	0	0
2325.31	0.927001	0.19603	0	0
2325.38	0.966647	0.19603	0	0
2361.66	-0.0564101	0.19602	0	0
2361.82	-0.0155038	0.196025	0	0
2362.85	0.0228637	0.196028	0	0
2367.73	0.0608685	0.196029	0	0
2378.9	0.0992551	0.196018	0	0
2381.56	0.137565	0.19603	0	0
2383.02	0.176257	0.196023	0	0
2384.17	0.21472	0.196028	0	0
2384.97	0.25284	0.196025	0	0
2385.45	0.29157	0.196023	0	0
2385.74	0.330205	0.196023	0	0
2385.94	0.369164	0.196026	0	0
2386.08	0.407913	0.196037	0	0
2386.21	0.447674	0.196032	0	0
2386.32	0.487416	0.196027	0	0
2386.41	0.527482	0.196022	0	0
2386.5	0.566537	0.196035	0	0
2386.59	0.605973	0.196025	0	0
2386.67	0.645696	0.196027	0	0
2386.75	0.686564	0.196023	0	0
2386.83	0.727184	0.196023	0	0
2386.91	0.767174	0.196032	0	0
2386.98	0.806649	0.196025	0	0
2387.06	0.846734	0.196027	0	0
2387.13	0.886858	0.196024	0	0
2387.21	0.927478	0.196015	0	0
2387.28	0.967544	0.196031	0	0
2423.55	-0.0551884	0.196025	0	0
2423.73	-0.0144349	0.196029	0	0
2424.83	0.0243526	0.196028	0	0
2429.81	0.0623383	0.196028	0	0
2439.42	0.100477	0.196023	0	0
2442.5	0.138902	0.19602	0	0
2444.23	0.177116	0.196026	0	0
2445.45	0.215522	0.19603	0	0
2446.25	0.253909	0.196023	0	0
2446.73	0.292333	0.19602	0	0
2447.03	0.331293	0.19602	0	0
2447.23	0.370729	0.196036	0	0
2447.39	0.409917	0.196021	0	0
2447.52	0.449736	0.196032	0	0
2447.63	0.48984	0.196027	0	0
2447.73	0.52941	0.19602	0	0
2447.82	0.568904	0.19602	0	0
2447.91	0.608913	0.196024	0	0
2447.99	0.648693	0.19603	0	0
2448.08	0.688378	0.19602	0	0
2448.15	0.728139	0.19602	0	0
2448.23	0.76914	0.196024	0	0
2448.31	0.809531	0.196032	0	0
2448.39	0.849502	0.196026	0	0
2448.46	0.889454	0.196016	0	0
2448.54	0.929959	0.196023	0	0
2448.62	0.970026	0.196021	0	0
2484.88	-0.052936	0.19603	0	0
2485.08	-0.0124306	0.196027	0	0
2486.28	0.0262805	0.196027	0	0
2491.35	0.0643426	0.19603	0	0
2499.74	0.102252	0.196023	0	0
2503.11	0.140486	0.196025	0	0
2505.07	0.178968	0.196019	0	0
2506.28	0.217144	0.196025	0	0
2507.09	0.255779	0.196027	0	0
2507.57	0.29449	0.196016	0	0
2507.87	0.333392	0.196022	0	0
2508.08	0.372981	0.196023	0	0
2508.23	0.412857	0.196032	0	0
2508.36	0.452217	0.196024	0	0
2508.48	0.491787	0.196029	0	0
2508.58	0.531243	0.196024	0	0
2508.68	0.571481	0.19602	0	0
2508.77	0.610955	0.196028	0	0
2508.85	0.650888	0.19602	0	0
2508.94	0.690535	0.196025	0	0
2509.02	0.729856	0.196029	0	0
2509.1	0.769465	0.19602	0	0
2509.18	0.809073	0.196027	0	0
2509.26	0.848662	0.196023	0	0
2509.33	0.888423	0.196026	0	0
2509.41	0.92828	0.196023	0	0
2509.49	0.968861	0.196026	0	0
2545.76	-0.0544821	0.196027	0	0
2545.93	-0.0138813	0.196023	0	0
2547.01	0.0247343	0.196025	0	0
2551.46	0.0629873	0.196027	0	0
2558.92	0.101317	0.196021	0	0
2562.78	0.139436	0.196028	0	0
2564.99	0.177594	0.196028	0	0
2566.3	0.215656	0.196027	0	0
2567.13	0.254099	0.196027	0	0
2567.62	0.292601	0.196025	0	0
2567.92	0.331369	0.196025	0	0
2568.14	0.370405	0.196032	0	0
2568.3	0.409746	0.196026	0	0
2568.44	0.449144	0.196028	0	0
2568.56	0.489038	0.196015	0	0
2568.67	0.528704	0.196021	0	0
2568.78	0.568808	0.196035	0	0
2568.87	0.608856	0.19603	0	0
2568.96	0.649457	0.196025	0	0
2569.05	0.689275	0.196025	0	0
2569.14	0.729551	0.196026	0	0
2569.22	0.769808	0.196031	0	0
2569.3	0.809321	0.196032	0	0
2569.38	0.849197	0.196025	0	0
2569.46	0.88911	0.196032	0	0
2569.53	0.928986	0.196023	0	0
2569.61	0.9693	0.196024	0	0
2569.68	1.00082	0.196021	0	0