File: EXPERIMENTAL-DATA/Electrochemical-cycling/S-series/2024-06-14_S02_Icell_t0060_C0500_J01_deltaX-110,0mm_02_MB_C06.txt
time/s	Ewe/V	I/mA	error
60.053	2.72445	-0.0250234	0
60.1432	0.00933218	-10.244	0
60.1436	0.00937036	-10.1447	0
60.144	0.00946582	-10.0471	0
60.1444	0.0092749	-9.95147	0
60.1448	0.00940854	-9.85765	0
60.1452	0.00940854	-9.76376	0
60.1456	0.00938945	-9.67236	0
60.146	0.00937036	-9.58293	0
60.1464	0.00931308	-9.4956	0
60.1468	0.00937036	-9.40801	0
60.1472	0.00942764	-9.32234	0
60.1476	0.009504	-9.23825	0
60.148	0.00944673	-9.15538	0
60.1484	0.00935127	-9.07441	0
60.1488	0.00940854	-8.99389	0
60.1492	0.00933218	-8.91541	0
60.1496	0.00942764	-8.83687	0
60.15	0.00940854	-8.76023	0
60.1504	0.00933218	-8.68493	0
60.1508	0.00944673	-8.61128	0
60.1512	0.00938945	-8.53853	0
60.1516	0.00942764	-8.46648	0
60.152	0.00935127	-8.39512	0
60.1524	0.00937036	-8.32625	0
60.1528	0.00948491	-8.25732	0
60.1532	0.00942764	-8.19035	0
60.1536	0.009504	-8.12282	0
60.154	0.009504	-8.05764	0
60.1544	0.00931308	-7.9924	0
60.1548	0.00938945	-7.92887	0
60.1552	0.00942764	-7.86675	0
60.1556	0.00937036	-7.80424	0
60.156	0.00933218	-7.74333	0
60.1564	0.00944673	-7.68311	0
60.1568	0.00933218	-7.62392	0
60.1572	0.00935127	-7.56619	0
60.1576	0.00944673	-7.50756	0
60.158	0.00944673	-7.45091	0
60.1584	0.00942764	-7.39426	0
60.1588	0.00938945	-7.33978	0
60.1592	0.00938945	-7.28631	0
60.1596	0.00944673	-7.23182	0
60.16	0.00938945	-7.17899	0
60.1604	0.00938945	-7.12597	0
60.1608	0.00935127	-7.07467	0
60.1612	0.00940854	-7.02394	0
60.1616	0.00948491	-6.9734	0
60.1622	0.00937036	-6.89931	0
60.1628	0.00938945	-6.82662	0
60.1634	0.00944673	-6.75647	0
60.164	0.00944673	-6.68601	0
60.1646	0.00937036	-6.61771	0
60.1652	0.00946582	-6.55024	0
60.1658	0.00942764	-6.48436	0
60.1664	0.00940854	-6.41925	0
60.167	0.009504	-6.35687	0
60.1676	0.00938945	-6.2943	0
60.1682	0.00937036	-6.23275	0
60.1688	0.00946582	-6.17291	0
60.1694	0.009504	-6.11397	0
60.17	0.00948491	-6.05662	0
60.1706	0.00944673	-5.99934	0
60.1712	0.00946582	-5.94485	0
60.1718	0.00948491	-5.88954	0
60.1724	0.00942764	-5.83505	0
60.173	0.00948491	-5.78216	0
60.1736	0.00940854	-5.73047	0
60.1742	0.00956128	-5.67885	0
60.175	0.009504	-5.61322	0
60.1758	0.00954219	-5.54747	0
60.1766	0.00948491	-5.48484	0
60.1774	0.00948491	-5.42214	0
60.1782	0.00942764	-5.36193	0
60.179	0.00940854	-5.30114	0
60.1798	0.00946582	-5.2422	0
60.1806	0.0095231	-5.18625	0
60.1814	0.00948491	-5.13062	0
60.1822	0.00944673	-5.076	0
60.183	0.00940854	-5.0226	0
60.1838	0.00940854	-4.96939	0
60.1848	0.00944673	-4.90605	0
60.1858	0.00938945	-4.84348	0
60.1868	0.00948491	-4.78295	0
60.1878	0.00937036	-4.72439	0
60.1888	0.009504	-4.66583	0
60.1898	0.00938945	-4.60899	0
60.1908	0.00938945	-4.55463	0
60.1918	0.00942764	-4.50091	0
60.1928	0.00946582	-4.44903	0
60.1938	0.00940854	-4.39716	0
60.195	0.00940854	-4.33771	0
60.1962	0.00944673	-4.2794	0
60.1974	0.00956128	-4.22377	0
60.1986	0.009504	-4.16852	0
60.1998	0.00942764	-4.11416	0
60.201	0.00940854	-4.06235	0
60.2022	0.00940854	-4.012	0
60.2036	0.00946582	-3.95465	0
60.205	0.00940854	-3.89845	0
60.2064	0.00944673	-3.84434	0
60.2078	0.00942764	-3.79139	0
60.2092	0.00946582	-3.74053	0
60.2106	0.009504	-3.69024	0
60.2122	0.00942764	-3.63506	0
60.2138	0.00946582	-3.58248	0
60.2154	0.00944673	-3.53111	0
60.217	0.00944673	-3.48038	0
60.2188	0.00944673	-3.42526	0
60.2206	0.00948491	-3.37288	0
60.2224	0.00948491	-3.32246	0
60.2244	0.00946582	-3.26696	0
60.2264	0.00940854	-3.21426	0
60.2284	0.00935127	-3.16378	0
60.2306	0.00942764	-3.10923	0
60.2328	0.00944673	-3.0571	0
60.235	0.00956128	-3.007	0
60.2374	0.00942764	-2.95405	0
60.2398	0.009504	-2.90236	0
60.2424	0.00938945	-2.84972	0
60.245	0.00954219	-2.79848	0
60.2478	0.00956128	-2.74712	0
60.2506	0.00944673	-2.69479	0
60.2536	0.00944673	-2.64355	0
60.2568	0.00948491	-2.59053	0
60.26	0.00946582	-2.53974	0
60.2634	0.00940854	-2.4885	0
60.267	0.00937036	-2.43656	0
60.2706	0.00937036	-2.38646	0
60.2744	0.00938945	-2.33605	0
60.2784	0.00944673	-2.28507	0
60.2828	0.00948491	-2.23224	0
60.2872	0.00942764	-2.18208	0
60.292	0.00944673	-2.12995	0
60.297	0.00938945	-2.07852	0
60.3022	0.00958037	-2.02811	0
60.3078	0.00944673	-1.97731	0
60.3136	0.0095231	-1.92582	0
60.3198	0.00940854	-1.87515	0
60.3262	0.00938945	-1.82467	0
60.3332	0.00937036	-1.77439	0
60.3406	0.00958037	-1.72334	0
60.3486	0.00942764	-1.67217	0
60.357	0.00940854	-1.62214	0
60.366	0.00946582	-1.57198	0
60.3756	0.009504	-1.52137	0
60.386	0.00944673	-1.46975	0
60.3974	0.00954219	-1.41909	0
60.4094	0.00946582	-1.36886	0
60.4226	0.00944673	-1.31864	0
60.437	0.00938945	-1.26817	0
60.4526	0.00944673	-1.21763	0
60.47	0.00942764	-1.16683	0
60.489	0.00942764	-1.1161	0
60.5096	0.00954219	-1.06588	0
60.533	0.00942764	-1.01566	0
60.559	0.00937036	-0.965249	0
60.588	0.00942764	-0.914901	0
60.621	0.009504	-0.864361	0
60.6582	0.00946582	-0.81414	0
60.7012	0.009504	-0.763601	0
60.7508	0.00942764	-0.713125	0
60.8086	0.009504	-0.66284	0
60.8766	0.00959946	-0.612619	0
60.957	0.00933218	-0.562334	0
61.0542	0.00948491	-0.512049	0
61.1752	0.00948491	-0.462019	0
61.3376	0.00954219	-0.412002	0
61.536	0.00948491	-0.361997	0
61.8026	0.00958037	-0.31196	0
62.183	0.00937036	-0.261949	0
62.763	0.0095231	-0.211886	0
63.7564	0.00948491	-0.161869	0
65.785	0.00954219	-0.111813	0
71.5376	0.009504	-0.0617953	0
81.5376	0.00956128	-0.0352072	0
91.5376	0.00940854	-0.0242824	0
101.538	0.00937036	-0.0183759	0
111.538	0.00937036	-0.014772	0
120.053	0.00944673	-0.0126412	0