File: EXPERIMENTAL-DATA/Electrochemical-cycling/S-series/2024-06-25_S12_Icell_t0012_C0010_J01_deltaX-110,1mm_04_CP_C05.txt
time/s	Ewe/V	I/mA	error
72.2058	0.0201622	-0.194691	0
72.206	0.0179171	-0.19598	0
72.2062	0.0165118	-0.195988	0
72.2066	0.0146982	-0.195982	0
72.207	0.0132855	-0.195978	0
72.2074	0.0118729	-0.195982	0
72.2078	0.0106511	-0.19598	0
72.2082	0.0092957	-0.195978	0
72.2086	0.00801666	-0.195984	0
72.209	0.00673763	-0.195978	0
72.2094	0.0054395	-0.195987	0
72.2098	0.004275	-0.195987	0
72.2102	0.00314868	-0.195987	0
72.2106	0.00198418	-0.195979	0
72.211	0.000838773	-0.195982	0
72.2114	-0.000230275	-0.195985	0
72.2118	-0.00131841	-0.195984	0
72.2122	-0.00238746	-0.195981	0
72.2126	-0.00345651	-0.195984	0
72.213	-0.00454465	-0.195984	0
72.2136	-0.0059955	-0.195984	0
72.214	-0.00700727	-0.195981	0
72.2144	-0.00817177	-0.195982	0
72.215	-0.00969898	-0.195977	0
72.2156	-0.010978	-0.19598	0
72.216	-0.0120089	-0.195987	0
72.2166	-0.0133834	-0.195988	0
72.2172	-0.0147388	-0.195985	0
72.2176	-0.0157696	-0.195983	0
72.218	-0.0167814	-0.195987	0
72.2186	-0.0179459	-0.195979	0
72.2192	-0.0193586	-0.19598	0
72.2198	-0.0207522	-0.195989	0
72.2204	-0.0220312	-0.195982	0
72.221	-0.023253	-0.195987	0
72.2216	-0.0246657	-0.195985	0
72.2222	-0.0258111	-0.195985	0
72.2228	-0.0270137	-0.19598	0
72.2234	-0.0282355	-0.195976	0
72.224	-0.0293809	-0.195986	0
72.2246	-0.0307363	-0.195981	0
72.2254	-0.0321681	-0.19598	0
72.226	-0.0334853	-0.195985	0
72.2268	-0.0348789	-0.19598	0
72.2274	-0.0359097	-0.19598	0
72.2282	-0.0373606	-0.195985	0
72.2288	-0.0385251	-0.195983	0
72.2294	-0.0396705	-0.195977	0
72.2302	-0.0408923	-0.195986	0
72.2308	-0.0419422	-0.195981	0
72.2314	-0.042954	-0.195984	0
72.2322	-0.0444048	-0.19598	0
72.233	-0.0454739	-0.195983	0
72.2336	-0.0465239	-0.195985	0
72.2344	-0.0477838	-0.195984	0
72.2352	-0.0490056	-0.195984	0
72.236	-0.0502464	-0.195978	0
72.2368	-0.0515446	-0.195988	0
72.2376	-0.0526518	-0.195977	0
72.2384	-0.0536636	-0.195986	0
72.2392	-0.0549617	-0.195984	0
72.24	-0.0559926	-0.195982	0
72.2408	-0.0570616	-0.19598	0
72.2416	-0.0582452	-0.19598	0
72.2424	-0.0593142	-0.195991	0
72.2434	-0.060536	-0.195984	0
72.2444	-0.0617005	-0.195983	0
72.2454	-0.0629605	-0.195984	0
72.2464	-0.0641059	-0.195983	0
72.2474	-0.0653276	-0.195987	0
72.2484	-0.0664921	-0.195987	0
72.2494	-0.067523	-0.195982	0
72.2504	-0.0686684	-0.195985	0
72.2516	-0.0698329	-0.19599	0
72.2526	-0.070902	-0.19598	0
72.2538	-0.0720092	-0.195978	0
72.255	-0.0730401	-0.19598	0
72.256	-0.0742618	-0.195983	0
72.2572	-0.0753309	-0.195982	0
72.2586	-0.0765145	-0.195986	0
72.26	-0.0776408	-0.195985	0
72.2614	-0.0788435	-0.195987	0
72.2628	-0.0799507	-0.195987	0
72.264	-0.0809816	-0.195984	0
72.2656	-0.082127	-0.19599	0
72.267	-0.0831769	-0.195983	0
72.2686	-0.0842269	-0.195979	0
72.2702	-0.0852959	-0.195983	0
72.272	-0.0864986	-0.195984	0
72.274	-0.0877013	-0.195984	0
72.2758	-0.0888276	-0.195981	0
72.2778	-0.0898776	-0.195985	0
72.2798	-0.0910039	-0.195985	0
72.2816	-0.0920729	-0.195987	0
72.2844	-0.0932947	-0.195979	0
72.2864	-0.0943256	-0.195977	0
72.2888	-0.0954519	-0.195985	0
72.2912	-0.0964636	-0.195982	0
72.2938	-0.0974945	-0.195985	0
72.2964	-0.0985636	-0.195983	0
72.2992	-0.0997472	-0.195989	0
72.3022	-0.100797	-0.195984	0
72.3056	-0.101809	-0.195988	0
72.3086	-0.10284	-0.19598	0
72.3122	-0.103909	-0.195988	0
72.3158	-0.104978	-0.195982	0
72.3196	-0.10599	-0.195981	0
72.3234	-0.107001	-0.195987	0
72.3274	-0.108013	-0.19598	0
72.3316	-0.109025	-0.195986	0
72.3362	-0.110056	-0.195984	0
72.3412	-0.111106	-0.195981	0
72.3462	-0.112156	-0.19599	0
72.352	-0.113225	-0.195982	0
72.3578	-0.114294	-0.195982	0
72.3638	-0.115306	-0.195982	0
72.3702	-0.116356	-0.195983	0
72.3774	-0.117425	-0.195984	0
72.3848	-0.118532	-0.195985	0
72.3932	-0.119563	-0.195984	0
72.4012	-0.120689	-0.195977	0
72.411	-0.121834	-0.19598	0
72.4228	-0.122865	-0.195988	0
72.434	-0.123953	-0.195982	0
72.4488	-0.124965	-0.195977	0
72.477	-0.125996	-0.195982	0
72.5064	-0.124984	-0.195984	0
72.52	-0.123877	-0.195986	0
72.531	-0.122789	-0.195985	0
72.5416	-0.121624	-0.195986	0
72.5504	-0.120575	-0.195987	0
72.5578	-0.119448	-0.195987	0
72.5668	-0.118379	-0.195986	0
72.5736	-0.117329	-0.195985	0
72.581	-0.11626	-0.195982	0
72.5884	-0.115191	-0.195989	0
72.5954	-0.114084	-0.195985	0
72.6036	-0.112977	-0.195983	0
72.6116	-0.111965	-0.195981	0
72.6188	-0.110934	-0.195991	0
72.626	-0.109922	-0.195978	0
72.6338	-0.10891	-0.195985	0
72.6418	-0.10788	-0.195982	0
72.651	-0.106772	-0.195986	0
72.6598	-0.105722	-0.195977	0
72.6698	-0.104672	-0.195985	0
72.6796	-0.103622	-0.195983	0
72.6908	-0.102496	-0.195978	0
72.7026	-0.101484	-0.195991	0
72.7138	-0.100415	-0.195987	0
72.7274	-0.0993654	-0.195984	0
72.7398	-0.0983345	-0.195982	0
72.7562	-0.0972654	-0.195984	0
72.774	-0.0961964	-0.195985	0
72.7916	-0.0951846	-0.195987	0
72.812	-0.0941537	-0.195986	0
72.8338	-0.093142	-0.195985	0
72.8578	-0.092092	-0.19598	0
72.8806	-0.0910802	-0.195983	0
72.9142	-0.0900685	-0.195982	0
72.9494	-0.0889994	-0.195985	0
72.9934	-0.0879685	-0.195992	0
73.0386	-0.0869568	-0.195981	0
73.0946	-0.0859259	-0.195987	0
73.1564	-0.0849141	-0.195979	0
73.235	-0.0839023	-0.195984	0
73.331	-0.0828715	-0.195983	0
73.4446	-0.0818597	-0.195989	0
73.6144	-0.0808097	-0.195986	0
73.8376	-0.0797789	-0.19598	0
74.1524	-0.0787671	-0.195992	0
74.7712	-0.0777362	-0.19598	0
82.5816	-0.0788244	-0.19599	0
86.2554	-0.0798361	-0.195987	0
90.0966	-0.080867	-0.195988	0
95.045	-0.0818979	-0.195985	0
101.082	-0.0829097	-0.195987	0
108.206	-0.0834633	-0.195982	0