File: EXPERIMENTAL-DATA/Electrochemical-cycling/S-series/2024-07-02_S24_TPcell_t1800_C0500_J01_newScript_02_CA_C02.txt
time/s	Ewe/V	I/mA	error
60.0484	2.81746	-0.00038972	0
60.2066	0.0486487	-38.4725	0
60.2434	0.0487441	-34.9707	0
60.282	0.0486678	-32.2908	0
60.324	0.048725	-29.9693	0
60.3692	0.0486678	-27.8752	0
60.42	0.0486487	-25.9078	0
60.474	0.0486487	-24.1167	0
60.534	0.0486869	-22.4511	0
60.6004	0.0487441	-20.9007	0
60.6654	0.048706	-19.6228	0
60.7388	0.048725	-18.4086	0
60.819	0.048706	-17.2944	0
60.8974	0.048706	-16.3845	0
60.9838	0.048725	-15.5345	0
61.0742	0.0488205	-14.7673	0
61.1656	0.048706	-14.1108	0
61.2556	0.0486487	-13.5474	0
61.3388	0.048725	-13.0889	0
61.4398	0.048706	-12.5834	0
61.524	0.0487823	-12.2294	0
61.6226	0.0486296	-11.8378	0
61.7178	0.0486678	-11.4978	0
61.825	0.0486105	-11.1616	0
61.9016	0.0486869	-10.935	0
61.9848	0.048706	-10.7153	0
62.0718	0.0486487	-10.5052	0
62.1636	0.048706	-10.2976	0
62.2538	0.0486105	-10.1072	0
62.3438	0.0485723	-9.93723	0
62.4456	0.0486869	-9.75641	0
62.5364	0.0486487	-9.60487	0
62.6302	0.048725	-9.46734	0
62.7172	0.0486678	-9.35656	0
62.8074	0.048725	-9.24068	0
62.9058	0.048706	-9.12097	0
63.0042	0.0486487	-9.02038	0
63.1016	0.0486678	-8.92041	0
63.1892	0.0485914	-8.82873	0
63.297	0.0487441	-8.73322	0
63.383	0.0486869	-8.66955	0
63.4802	0.0486296	-8.60142	0
63.5774	0.0487823	-8.51929	0
63.666	0.0486678	-8.45944	0
63.7622	0.0486869	-8.40086	0
63.8546	0.0487823	-8.34546	0
63.9444	0.0487632	-8.29262	0
64.0374	0.048706	-8.24359	0
64.1312	0.048706	-8.19011	0
64.213	0.0486678	-8.17801	0
64.3002	0.0487441	-8.08633	0
64.3908	0.0486487	-8.03093	0
64.4748	0.0486487	-8.01056	0
64.5638	0.0487441	-7.96344	0
64.6628	0.0486105	-7.90996	0
64.753	0.0487441	-7.86602	0
64.8432	0.0486296	-7.83674	0
64.9302	0.0486296	-7.80044	0
65.0316	0.0486678	-7.77052	0
65.0948	0.0487632	-7.75524	0
65.1796	0.0487823	-7.71449	0
65.278	0.0486678	-7.68265	0
65.37	0.048706	-7.65273	0
65.463	0.0488205	-7.62408	0
65.5516	0.0487441	-7.69093	0
65.6156	0.048725	-7.57951	0
65.6838	0.0486487	-7.65782	0
65.7654	0.048706	-7.54385	0
65.8338	0.0487632	-7.56613	0
65.9164	0.0486487	-7.49355	0
65.9962	0.0487441	-7.47509	0
66.088	0.0486296	-7.68647	0
66.1544	0.0488587	-7.50628	0
66.2214	0.0486678	-7.57505	0
66.2946	0.0486296	-7.71831	0
66.3832	0.0486678	-7.39995	0
66.4632	0.0486678	-7.38531	0
66.5602	0.0487823	-7.37258	0
66.6242	0.0487823	-7.38404	0
66.7028	0.0486105	-7.45789	0
66.769	0.048725	-7.34201	0
66.8402	0.048706	-7.31527	0
66.9306	0.0487632	-7.30127	0
67.0052	0.0486487	-7.47954	0
67.0648	0.0488014	-7.37194	0
67.1398	0.0487441	-7.33628	0
67.1922	0.0486487	-7.48527	0
67.2652	0.0486487	-7.41969	0
67.3164	0.0486678	-7.29299	0
67.3836	0.0486105	-7.321	0
67.443	0.0486296	-7.30381	0
67.534	0.0487441	-7.23632	0
67.6112	0.0486869	-7.54194	0
67.6854	0.0486678	-7.27198	0
67.7672	0.0486869	-7.19111	0
67.8386	0.048706	-7.19175	0
67.9048	0.0485723	-7.40441	0
67.9754	0.0486296	-7.2446	0
68.0544	0.048725	-7.15355	0
68.1206	0.0486869	-7.18793	0
68.1834	0.048725	-7.22804	0
68.2402	0.0487632	-7.29808	0
68.3012	0.0486678	-7.17711	0
68.3666	0.0485532	-7.33437	0
68.4184	0.048725	-7.12935	0
68.4824	0.0486487	-7.11789	0
68.5454	0.0487441	-7.19493	0
68.6068	0.0486869	-7.52921	0
68.6604	0.0487441	-7.11535	0
68.702	0.0486869	-7.37194	0
68.75	0.0486869	-7.12808	0
68.7998	0.048706	-7.27834	0
68.8512	0.048706	-7.18411	0
68.897	0.048706	-7.24778	0
68.942	0.0487823	-7.30254	0
68.9818	0.0488014	-7.31018	0
69.0272	0.0486487	-7.06123	0
69.0748	0.0486869	-7.23059	0
69.1154	0.048725	-7.2637	0
69.1608	0.0487632	-7.17138	0
69.2016	0.0486678	-7.25606	0
69.244	0.0487441	-7.59797	0
69.2856	0.0487823	-7.484	0
69.3276	0.0486105	-7.09052	0
69.3662	0.0487823	-7.35921	0
69.409	0.0486105	-7.22613	0
69.451	0.0486678	-7.10898	0
69.4914	0.0488396	-7.14718	0
69.5298	0.0486105	-7.33565	0
69.5692	0.0486105	-7.5222	0
69.6098	0.0486487	-7.15801	0
69.6478	0.048725	-7.73805	0
69.6852	0.0487823	-7.59924	0
69.7226	0.0486869	-8.48045	0
69.7604	0.0486487	-7.9558	0
69.7986	0.0491069	-7.4407	0
69.8374	0.0486678	-8.90895	0
69.876	0.0487632	-8.29517	0
69.9136	0.0483814	-7.94498	0
69.9528	0.0488014	-8.44352	0
69.9906	0.0486296	-7.58078	0
70.0288	0.048706	-8.04876	0
70.066	0.0486105	-7.68456	0
70.1034	0.0486678	-7.67374	0
70.1408	0.0486678	-7.50819	0
70.1788	0.0487823	-8.27033	0
70.2172	0.0486487	-8.7918	0
70.2546	0.0486487	-8.26651	0
70.2914	0.0488014	-8.00865	0
70.3294	0.0485723	-7.80936	0
70.367	0.0486869	-7.96408	0
70.4046	0.0490496	-8.16018	0
70.4418	0.0485723	-9.04648	0
70.4792	0.0486869	-10.2416	0
70.5172	0.0486678	-8.50846	0
70.555	0.0486678	-8.39895	0
70.592	0.048496	-8.18947	0
70.6294	0.0489732	-10.9413	0
70.6664	0.0486105	-8.39577	0
70.7034	0.0487441	-10.3715	0
70.7406	0.0487632	-9.64562	0
70.7782	0.0488969	-9.01082	0
70.8152	0.048706	-8.89558	0
70.8518	0.0487632	-8.80899	0
70.8888	0.0485914	-8.68037	0
70.9258	0.0486296	-9.02101	0
70.963	0.0486678	-8.79052	0
70.9996	0.0490305	-9.38775	0
71.0364	0.0484769	-10.5567	0
71.0728	0.0488778	-12.0384	0
71.1098	0.0485914	-9.18465	0
71.1702	0.0485341	-10.9038	0
71.2564	0.0483814	-10.8197	0
71.367	0.0489923	-10.0792	0
71.4534	0.048515	-12.0409	0
71.564	0.0486296	-10.6293	0
71.6574	0.0488969	-10.3027	0
71.7686	0.049126	-11.3463	0
71.855	0.0494123	-13.6333	0
71.97	0.048935	-14.5164	0
72.0542	0.0487632	-15.1792	0
72.1636	0.048725	-14.745	0
72.2716	0.0480378	-15.8039	0
72.356	0.0481714	-15.3397	0
72.4656	0.049546	-21.936	0
72.5502	0.0477705	-22.0576	0
72.6496	0.0494505	-23.0598	0
72.7406	0.0488396	-21.044	0
72.8492	0.049336	-25.0807	0
72.9336	0.0488587	-22.7981	0
73.0498	0.0466441	-25.3239	0
73.1344	0.0487823	-31.5662	0
73.243	0.0478278	-28.9735	0
73.3282	0.0484387	-29.8738	0
73.4368	0.0490114	-31.3752	0
73.5202	0.048286	-35.6176	0
73.6282	0.0488014	-35.361	0
73.7116	0.0474651	-34.3702	0
73.8206	0.0475414	-39.5072	0
73.929	0.0475796	-33.9914	0
74.0206	0.0465487	-48.1276	0
74.131	0.0479996	-42.2533	0
74.216	0.048095	-42.1113	0
74.3256	0.0487632	-40.9837	0
74.4106	0.048496	-40.5565	0
74.52	0.047446	-38.2421	0
74.6054	0.0472169	-40.4502	0
74.7148	0.0503287	-51.7785	0
74.7998	0.0480378	-48.9629	0
74.9086	0.055235	-54.303	0
74.9942	0.0533832	-53.439	0
75.111	0.0472169	-59.687	0
75.1956	0.0500423	-52.9532	0
75.3052	0.0477514	-56.3316	0
75.39	0.0493741	-60.7509	0
75.5002	0.0475223	-66.1222	0
75.5858	0.0478087	-71.3871	0
75.6954	0.0481905	-67.1798	0
75.8048	0.0494314	-73.245	0
75.8898	0.0472169	-81.8323	0
75.9992	0.0476369	-74.5955	0
76.0916	0.0485341	-78.4718	0
76.2012	0.0503669	-79.7872	0
76.2868	0.0485914	-86.4102	0
76.4016	0.0492214	-90.637	0
76.4788	0.0461287	-89.5666	0
76.5882	0.049145	-95.0331	0
76.6732	0.0493741	-102.927	0
76.7826	0.0493741	-93.0453	0
76.8672	0.048706	-107.903	0
76.9756	0.048076	-104.998	0
77.069	0.0506723	-105.768	0
77.179	0.0479805	-98.2696	0
77.2644	0.0485341	-103.653	0
77.3736	0.049126	-103.437	0
77.4838	0.0493932	-105.762	0
77.5682	0.0494887	-113.751	0
77.678	0.049126	-113.815	0
77.7622	0.0473123	-112.936	0
77.872	0.0494505	-120.594	0
77.9568	0.0484005	-108.655	0
78.074	0.0496796	-111.751	0
78.1592	0.048916	-118.931	0
78.2686	0.0482096	-117.128	0
78.3536	0.0491069	-114.943	0
78.4642	0.0496605	-114.35	0
78.5498	0.048706	-112.184	0
78.6592	0.0465296	-117.408	0
78.7442	0.0485532	-116.09	0
78.8544	0.0492023	-105.463	0
78.9396	0.0477514	-119.466	0
79.049	0.0487632	-117.154	0
79.1406	0.0483432	-120.479	0
79.2518	0.0484196	-127.889	0
79.3634	0.0503287	-120.639	0
79.4494	0.049756	-132.521	0
79.561	0.0497369	-128.118	0
79.647	0.0484196	-135.802	0
79.7576	0.0492023	-148.13	0
79.8432	0.048935	-147.372	0
79.9552	0.0494887	-138.567	0
80.041	0.0484196	-132.807	0
80.1592	0.0485532	-136.904	0
80.2452	0.0488014	-135.216	0
80.3562	0.0485723	-136.955	0
80.4418	0.0488778	-139.153	0
80.5532	0.0485914	-151.672	0
80.6394	0.048076	-166.351	0
80.7506	0.047656	-148.716	0
80.8366	0.0473314	-148.162	0
80.9466	0.0489923	-155.75	0
81.0574	0.0526196	-153.909	0
81.1512	0.0471405	-154.183	0
81.2612	0.0461669	-149.372	0
81.3446	0.0461096	-163.3	0
81.4308	0.0477705	-155.731	0
81.502	0.0506341	-145.843	0
81.6418	0.0474651	-157.508	0
81.727	0.0487632	-148.347	0
81.8364	0.0468351	-177.781	0
81.921	0.0482096	-178.794	0
82.0298	0.0464914	-167.103	0
82.1154	0.0488396	-179.718	0
82.2328	0.0506532	-179.744	0
82.3176	0.047866	-174.29	0
82.4268	0.0503859	-177.463	0
82.512	0.0494505	-190.358	0
82.6214	0.0479423	-167.161	0
82.707	0.0493741	-189.319	0
82.8166	0.0499659	-188.446	0
82.9258	0.0515314	-190.377	0
83.0112	0.0495078	-186.293	0
83.1202	0.0498323	-199.864	0
83.2044	0.0494696	-195.894	0
83.2916	0.0496414	-193.594	0
83.3622	0.0489732	-202.113	0
83.4482	0.049336	-201.303	0
83.5782	0.0475987	-187.727	0
83.6646	0.0495841	-205.98	0
83.6972	0.0505005	-198.627	0