File: EXPERIMENTAL-DATA/Electrochemical-cycling/S-series/2024-06-25_S14_Icell_t1800_C0003_J01_deltaX-110,2mm_04_CP_C03.txt
time/s	Ewe/V	I/mA	error
1860.21	0.000333153	-0.194801	0
1860.21	-0.00399645	-0.195992	0
1860.21	-0.00642209	-0.195997	0
1860.21	-0.0077582	-0.195993	0
1860.21	-0.00897978	-0.195997	0
1860.21	-0.0100296	-0.195996	0
1860.21	-0.0121292	-0.19599	0
1860.21	-0.0131981	-0.195994	0
1860.21	-0.0149159	-0.195989	0
1860.21	-0.0159848	-0.195992	0
1860.21	-0.017779	-0.195992	0
1860.21	-0.0188097	-0.195992	0
1860.21	-0.0205276	-0.195996	0
1860.21	-0.0221691	-0.195994	0
1860.21	-0.0239442	-0.195996	0
1860.21	-0.0254521	-0.195989	0
1860.21	-0.0271317	-0.195995	0
1860.21	-0.0287923	-0.195992	0
1860.21	-0.0304147	-0.195996	0
1860.21	-0.0319799	-0.19599	0
1860.21	-0.0333923	-0.195994	0
1860.21	-0.0349193	-0.195994	0
1860.21	-0.036599	-0.196	0
1860.21	-0.0380115	-0.195991	0
1860.21	-0.039443	-0.196001	0
1860.21	-0.0410082	-0.195994	0
1860.21	-0.0423252	-0.195993	0
1860.21	-0.0437376	-0.195998	0
1860.22	-0.0452073	-0.195994	0
1860.22	-0.0466007	-0.195993	0
1860.22	-0.0479559	-0.195994	0
1860.22	-0.0491966	-0.195991	0
1860.22	-0.0506472	-0.195993	0
1860.22	-0.0518497	-0.195991	0
1860.22	-0.0531858	-0.195987	0
1860.22	-0.0546173	-0.195994	0
1860.22	-0.055858	-0.195989	0
1860.22	-0.0572132	-0.195993	0
1860.22	-0.0584921	-0.195993	0
1860.22	-0.0596564	-0.195995	0
1860.22	-0.0608398	-0.195992	0
1860.22	-0.0621186	-0.195991	0
1860.22	-0.0634357	-0.195993	0
1860.22	-0.0646572	-0.195991	0
1860.22	-0.0658406	-0.195997	0
1860.22	-0.0669477	-0.195995	0
1860.22	-0.0682265	-0.195994	0
1860.22	-0.0693336	-0.195994	0
1860.22	-0.0704788	-0.195994	0
1860.22	-0.0717768	-0.196	0
1860.22	-0.0729029	-0.195998	0
1860.22	-0.07401	-0.195996	0
1860.22	-0.0750216	-0.195998	0
1860.23	-0.0761096	-0.195993	0
1860.23	-0.0773312	-0.195991	0
1860.23	-0.0788772	-0.19599	0
1860.23	-0.079927	-0.195991	0
1860.23	-0.0810532	-0.195994	0
1860.23	-0.0821221	-0.195989	0
1860.23	-0.0831718	-0.195993	0
1860.23	-0.0842407	-0.195987	0
1860.23	-0.0856914	-0.195994	0
1860.23	-0.0867793	-0.195995	0
1860.23	-0.0881536	-0.195995	0
1860.23	-0.0892989	-0.195991	0
1860.23	-0.0905968	-0.195997	0
1860.23	-0.0917802	-0.195991	0
1860.23	-0.0931926	-0.195997	0
1860.23	-0.0945287	-0.195993	0
1860.23	-0.0959603	-0.195996	0
1860.23	-0.0973918	-0.195991	0
1860.23	-0.0987279	-0.195993	0
1860.23	-0.0997968	-0.195993	0
1860.24	-0.101057	-0.195996	0
1860.24	-0.102431	-0.195991	0
1860.24	-0.103729	-0.195991	0
1860.24	-0.104969	-0.195998	0
1860.24	-0.106286	-0.195998	0
1860.24	-0.107489	-0.19599	0
1860.24	-0.108768	-0.195994	0
1860.24	-0.109932	-0.19599	0
1860.24	-0.11123	-0.195996	0
1860.24	-0.112299	-0.195992	0
1860.24	-0.113597	-0.195996	0
1860.24	-0.114742	-0.195991	0
1860.24	-0.115849	-0.196	0
1860.24	-0.117052	-0.195991	0
1860.24	-0.118178	-0.195991	0
1860.24	-0.119342	-0.195995	0
1860.24	-0.120392	-0.195993	0
1860.25	-0.121404	-0.195989	0
1860.25	-0.122587	-0.195995	0
1860.25	-0.123904	-0.195991	0
1860.25	-0.125049	-0.196001	0
1860.25	-0.126328	-0.19599	0
1860.25	-0.12734	-0.195998	0
1860.25	-0.128466	-0.195993	0
1860.25	-0.129726	-0.195999	0
1860.25	-0.131004	-0.19599	0
1860.25	-0.132283	-0.195985	0
1860.25	-0.133581	-0.195992	0
1860.25	-0.134612	-0.196001	0
1860.25	-0.1357	-0.195995	0
1860.25	-0.136807	-0.195996	0
1860.26	-0.137914	-0.195993	0
1860.26	-0.139117	-0.195991	0
1860.26	-0.140166	-0.195987	0
1860.26	-0.141426	-0.195992	0
1860.26	-0.142743	-0.195997	0
1860.26	-0.143755	-0.195991	0
1860.26	-0.144785	-0.195988	0
1860.26	-0.145912	-0.195995	0
1860.26	-0.147114	-0.195997	0
1860.26	-0.148297	-0.195991	0
1860.26	-0.149347	-0.19599	0
1860.27	-0.150493	-0.195994	0
1860.27	-0.151676	-0.195994	0
1860.27	-0.152898	-0.195989	0
1860.27	-0.154138	-0.195993	0
1860.27	-0.15515	-0.195991	0
1860.27	-0.156161	-0.195997	0
1860.27	-0.157173	-0.195991	0
1860.27	-0.158566	-0.195996	0
1860.27	-0.159578	-0.195997	0
1860.28	-0.160609	-0.195994	0
1860.28	-0.161639	-0.195993	0
1860.28	-0.162804	-0.195993	0
1860.28	-0.163834	-0.195998	0
1860.28	-0.164961	-0.196	0
1860.28	-0.166106	-0.195994	0
1860.28	-0.167232	-0.196	0
1860.29	-0.168282	-0.195993	0
1860.29	-0.169351	-0.195996	0
1860.29	-0.170362	-0.195996	0
1860.29	-0.171393	-0.195993	0
1860.3	-0.172424	-0.195995	0
1860.31	-0.171393	-0.195991	0
1860.31	-0.170343	-0.195989	0
1860.31	-0.16916	-0.195996	0
1860.31	-0.168034	-0.195998	0
1860.32	-0.166965	-0.195995	0
1860.32	-0.165953	-0.195996	0
1860.32	-0.164922	-0.195993	0
1860.32	-0.163815	-0.195996	0
1860.32	-0.162594	-0.195997	0
1860.32	-0.161525	-0.195992	0
1860.32	-0.160513	-0.195991	0
1860.33	-0.159349	-0.195994	0
1860.33	-0.158318	-0.196001	0
1860.33	-0.157154	-0.195996	0
1860.33	-0.156085	-0.195991	0
1860.33	-0.154978	-0.195996	0
1860.33	-0.153795	-0.195992	0
1860.33	-0.152726	-0.19599	0
1860.33	-0.151561	-0.195994	0
1860.34	-0.150493	-0.195993	0
1860.34	-0.149462	-0.195996	0
1860.34	-0.148297	-0.195999	0
1860.34	-0.147171	-0.195996	0
1860.34	-0.146007	-0.195997	0
1860.34	-0.144824	-0.195998	0
1860.34	-0.143755	-0.195993	0
1860.34	-0.142743	-0.195988	0
1860.35	-0.141731	-0.195989	0
1860.35	-0.140663	-0.195992	0
1860.35	-0.139517	-0.195991	0
1860.35	-0.138296	-0.195991	0
1860.35	-0.137131	-0.195994	0
1860.35	-0.136043	-0.195997	0
1860.35	-0.135013	-0.195993	0
1860.36	-0.133772	-0.195989	0
1860.36	-0.13276	-0.195993	0
1860.36	-0.131634	-0.195994	0
1860.36	-0.130565	-0.195994	0
1860.36	-0.129439	-0.195991	0
1860.36	-0.128409	-0.195998	0
1860.36	-0.127397	-0.195997	0
1860.37	-0.126385	-0.195996	0
1860.37	-0.125355	-0.195993	0
1860.37	-0.124267	-0.195992	0
1860.37	-0.123121	-0.196001	0
1860.37	-0.121995	-0.195993	0
1860.37	-0.120965	-0.195993	0
1860.38	-0.119915	-0.195987	0
1860.38	-0.118731	-0.195997	0
1860.38	-0.117529	-0.195998	0
1860.38	-0.116479	-0.195996	0
1860.39	-0.115372	-0.195995	0
1860.39	-0.11436	-0.195996	0
1860.39	-0.113215	-0.195995	0
1860.39	-0.112184	-0.195997	0
1860.4	-0.111135	-0.195995	0
1860.4	-0.110085	-0.195991	0
1860.4	-0.109035	-0.195991	0
1860.41	-0.107947	-0.195991	0
1860.41	-0.106916	-0.195994	0
1860.42	-0.105867	-0.196002	0
1860.42	-0.104836	-0.195998	0
1860.43	-0.103748	-0.195994	0
1860.43	-0.102717	-0.195994	0
1860.44	-0.101648	-0.195996	0
1860.45	-0.10056	-0.195994	0
1860.45	-0.0995296	-0.195993	0
1860.46	-0.0984416	-0.195989	0
1860.47	-0.0973537	-0.195998	0
1860.49	-0.096342	-0.195994	0
1860.5	-0.0953304	-0.196001	0
1860.52	-0.0942615	-0.195993	0
1860.54	-0.0932499	-0.195993	0
1860.56	-0.0922383	-0.196	0
1860.59	-0.0912076	-0.195994	0
1860.62	-0.0901959	-0.195995	0
1860.67	-0.0890507	-0.195991	0
1860.74	-0.0879627	-0.195997	0
1860.84	-0.0869511	-0.195996	0
1861.02	-0.0859013	-0.195996	0
1861.34	-0.0848897	-0.195997	0
1866.17	-0.0859204	-0.195996	0
1868.02	-0.086932	-0.195997	0
1869.91	-0.0879627	-0.195996	0
1871.01	-0.0884208	-0.195999	0