File: EXPERIMENTAL-DATA/Electrochemical-cycling/S-series/2024-06-25_S12_Icell_t0012_C0010_J01_deltaX-110,1mm_02_MB_C05.txt
time/s	Ewe/V	I/mA	error
60.053	2.87282	-0.0250213	0
60.1432	0.00920534	-9.99591	0
60.1434	0.00916716	-9.92112	0
60.1436	0.00924352	-9.84749	0
60.1438	0.00914807	-9.77461	0
60.144	0.00920534	-9.70288	0
60.1442	0.00922443	-9.6323	0
60.1444	0.00924352	-9.56203	0
60.1446	0.00924352	-9.49317	0
60.1448	0.00920534	-9.42519	0
60.145	0.00926261	-9.35818	0
60.1452	0.0092817	-9.29198	0
60.1454	0.00914807	-9.22617	0
60.1456	0.00920534	-9.16151	0
60.1458	0.00931988	-9.09684	0
60.146	0.00924352	-9.03454	0
60.1462	0.00914807	-8.97318	0
60.1464	0.00922443	-8.91208	0
60.1466	0.00926261	-8.852	0
60.1468	0.00924352	-8.793	0
60.147	0.00922443	-8.73349	0
60.1472	0.00916716	-8.67506	0
60.1474	0.00920534	-8.61886	0
60.1476	0.00924352	-8.56114	0
60.1478	0.00926261	-8.50653	0
60.148	0.00920534	-8.4509	0
60.1482	0.0092817	-8.39668	0
60.1484	0.00920534	-8.34328	0
60.1486	0.00918625	-8.29026	0
60.1488	0.00926261	-8.23794	0
60.149	0.00914807	-8.18677	0
60.1492	0.00924352	-8.13528	0
60.1496	0.00920534	-8.03618	0
60.15	0.00924352	-7.93957	0
60.1504	0.00930079	-7.84461	0
60.1508	0.00918625	-7.75251	0
60.1512	0.00916716	-7.66354	0
60.1516	0.00918625	-7.5745	0
60.152	0.00920534	-7.48966	0
60.1524	0.00920534	-7.40666	0
60.1528	0.00924352	-7.32488	0
60.1532	0.00922443	-7.24666	0
60.1536	0.00912898	-7.16939	0
60.154	0.00922443	-7.09454	0
60.1544	0.00922443	-7.02103	0
60.1548	0.00924352	-6.95026	0
60.1552	0.00933897	-6.88031	0
60.1556	0.00935806	-6.8117	0
60.156	0.00922443	-6.74595	0
60.1564	0.00918625	-6.68161	0
60.1568	0.00922443	-6.61777	0
60.1572	0.00922443	-6.55629	0
60.1576	0.00930079	-6.49621	0
60.158	0.00916716	-6.43676	0
60.1584	0.00924352	-6.37993	0
60.1588	0.00935806	-6.32373	0
60.1592	0.00924352	-6.26975	0
60.1596	0.00933897	-6.21483	0
60.16	0.00926261	-6.16226	0
60.1604	0.00922443	-6.11166	0
60.1608	0.0092817	-6.06106	0
60.1614	0.00922443	-5.9885	0
60.162	0.0092817	-5.91792	0
60.1626	0.00922443	-5.84995	0
60.1632	0.00939624	-5.78356	0
60.1638	0.00933897	-5.71814	0
60.1644	0.00918625	-5.6564	0
60.165	0.0092817	-5.59498	0
60.1656	0.00926261	-5.53675	0
60.1662	0.00933897	-5.48004	0
60.1668	0.0092817	-5.42428	0
60.1674	0.00922443	-5.37082	0
60.168	0.00930079	-5.31729	0
60.1686	0.00937715	-5.26708	0
60.1694	0.00930079	-5.20063	0
60.1702	0.00935806	-5.13749	0
60.171	0.00933897	-5.07487	0
60.1718	0.00930079	-5.01625	0
60.1726	0.00933897	-4.95788	0
60.1734	0.0092817	-4.90175	0
60.1742	0.00926261	-4.84733	0
60.175	0.0092817	-4.79495	0
60.1758	0.00935806	-4.7427	0
60.1768	0.00939624	-4.68071	0
60.1778	0.0092817	-4.62043	0
60.1788	0.00916716	-4.56277	0
60.1798	0.0092817	-4.506	0
60.1808	0.00922443	-4.45158	0
60.1818	0.0092817	-4.39837	0
60.1828	0.00930079	-4.34714	0
60.184	0.00933897	-4.28706	0
60.1852	0.00933897	-4.22978	0
60.1864	0.00935806	-4.17364	0
60.1876	0.00930079	-4.11916	0
60.1888	0.0092817	-4.06557	0
60.1902	0.00933897	-4.00708	0
60.1916	0.00937715	-3.94916	0
60.193	0.00924352	-3.89404	0
60.1944	0.00935806	-3.83924	0
60.1958	0.00930079	-3.78718	0
60.1972	0.00933897	-3.73556	0
60.1988	0.0092817	-3.67956	0
60.2004	0.00930079	-3.62463	0
60.202	0.00933897	-3.5711	0
60.2036	0.00926261	-3.51987	0
60.2052	0.00941533	-3.46933	0
60.207	0.00924352	-3.41466	0
60.2088	0.00926261	-3.36203	0
60.2106	0.00933897	-3.31028	0
60.2124	0.00935806	-3.25994	0
60.2144	0.00922443	-3.20558	0
60.2164	0.00930079	-3.15352	0
60.2184	0.0092817	-3.10197	0
60.2206	0.00933897	-3.04825	0
60.2228	0.00933897	-2.99549	0
60.225	0.00941533	-2.94349	0
60.2274	0.00933897	-2.88971	0
60.2298	0.00933897	-2.83695	0
60.2322	0.00922443	-2.78603	0
60.2348	0.00933897	-2.73289	0
60.2374	0.00931988	-2.6807	0
60.24	0.00926261	-2.6301	0
60.2428	0.00926261	-2.57842	0
60.2456	0.00933897	-2.52705	0
60.2486	0.00931988	-2.47493	0
60.2516	0.00931988	-2.42408	0
60.2548	0.00931988	-2.37169	0
60.2582	0.00931988	-2.31779	0
60.2616	0.00931988	-2.26585	0
60.2652	0.00924352	-2.21328	0
60.2688	0.0092817	-2.16198	0
60.2726	0.00933897	-2.11011	0
60.2766	0.00935806	-2.05805	0
60.2806	0.00930079	-2.0077	0
60.2848	0.0092817	-1.95698	0
60.2892	0.00935806	-1.90542	0
60.2938	0.00926261	-1.85527	0
60.2984	0.00941533	-1.80518	0
60.3034	0.00937715	-1.7542	0
60.3088	0.00935806	-1.7022	0
60.3142	0.00931988	-1.65129	0
60.32	0.00930079	-1.60024	0
60.326	0.00937715	-1.54977	0
60.3322	0.00931988	-1.49968	0
60.339	0.0092817	-1.448	0
60.3462	0.00941533	-1.39791	0
60.3538	0.00931988	-1.34693	0
60.3618	0.00941533	-1.29563	0
60.3704	0.00930079	-1.2444	0
60.3796	0.00939624	-1.19329	0
60.3896	0.00931988	-1.14193	0
60.4004	0.00920534	-1.09088	0
60.4118	0.00931988	-1.04016	0
60.4242	0.00930079	-0.989241	0
60.4378	0.00933897	-0.939152	0
60.4526	0.00933897	-0.888617	0
60.469	0.00935806	-0.838082	0
60.4872	0.00939624	-0.787547	0
60.508	0.00926261	-0.736439	0
60.5312	0.00937715	-0.685332	0
60.5582	0.00937715	-0.63416	0
60.5884	0.00943442	-0.584135	0
60.624	0.00931988	-0.5336	0
60.667	0.00931988	-0.48351	0
60.718	0.00930079	-0.432976	0
60.786	0.00931988	-0.382841	0
60.868	0.0092817	-0.332833	0
60.9762	0.00930079	-0.28278	0
61.126	0.00931988	-0.232754	0
61.3524	0.00933897	-0.182682	0
61.7348	0.00924352	-0.132528	0
62.5426	0.00935806	-0.0822848	0
65.6498	0.00930079	-0.0322748	0
72.0528	0.00939624	-0.0142679	0