File: EXPERIMENTAL-DATA/Electrochemical-cycling/S-series/2024-06-14_S03_Icell_t1800_C0500_J01_deltaX-110,0mm_02_MB_C04.txt
time/s	Ewe/V	I/mA	error
60.053	2.69138	-0.0250249	0
60.1434	0.00930818	-10.3605	0
60.1438	0.00934635	-10.2394	0
60.1442	0.00930818	-10.1204	0
60.1446	0.00923181	-10.004	0
60.145	0.00936545	-9.88822	0
60.1454	0.00932727	-9.77532	0
60.1458	0.00930818	-9.66447	0
60.1462	0.00936545	-9.55546	0
60.1466	0.00930818	-9.44785	0
60.147	0.00928908	-9.34189	0
60.1474	0.00926999	-9.23836	0
60.1478	0.00938454	-9.13539	0
60.1482	0.0092509	-9.03529	0
60.149	0.00932727	-8.83891	0
60.1498	0.00921272	-8.64838	0
60.1506	0.00928908	-8.46479	0
60.1514	0.00928908	-8.28712	0
60.1522	0.00932727	-8.11472	0
60.153	0.00936545	-7.94736	0
60.1538	0.00936545	-7.78591	0
60.1546	0.00940363	-7.62975	0
60.1554	0.00930818	-7.47861	0
60.1562	0.00936545	-7.33091	0
60.157	0.00930818	-7.18951	0
60.1578	0.00923181	-7.05122	0
60.1586	0.00934635	-6.9167	0
60.1594	0.00936545	-6.78751	0
60.1602	0.00932727	-6.66247	0
60.161	0.00930818	-6.53984	0
60.1618	0.00923181	-6.42103	0
60.1626	0.00930818	-6.30623	0
60.1634	0.00936545	-6.19505	0
60.1642	0.00942272	-6.08617	0
60.165	0.00928908	-5.98111	0
60.1658	0.00930818	-5.87872	0
60.1668	0.00932727	-5.75647	0
60.168	0.00932727	-5.61341	0
60.1692	0.00932727	-5.47666	0
60.1704	0.00936545	-5.3455	0
60.1716	0.00928908	-5.22027	0
60.1728	0.00940363	-5.10012	0
60.174	0.00940363	-4.98468	0
60.1752	0.00932727	-4.87338	0
60.1764	0.00944181	-4.76654	0
60.1776	0.00932727	-4.66421	0
60.1792	0.00930818	-4.53445	0
60.1808	0.00942272	-4.41023	0
60.1824	0.00932727	-4.29238	0
60.184	0.00938454	-4.17917	0
60.1856	0.00928908	-4.0729	0
60.1872	0.0094609	-3.97076	0
60.1892	0.00940363	-3.85227	0
60.1912	0.00932727	-3.73778	0
60.1932	0.00928908	-3.63068	0
60.1954	0.0092509	-3.51996	0
60.1978	0.00936545	-3.40687	0
60.2002	0.00932727	-3.29952	0
60.2028	0.00940363	-3.19261	0
60.2056	0.00936545	-3.08379	0
60.2086	0.00936545	-2.97599	0
60.2118	0.00934635	-2.87124	0
60.2152	0.0094609	-2.76561	0
60.219	0.00940363	-2.65927	0
60.223	0.00938454	-2.55548	0
60.2274	0.00942272	-2.45149	0
60.2322	0.00934635	-2.3477	0
60.2374	0.00940363	-2.24677	0
60.2432	0.00936545	-2.14407	0
60.2498	0.0092509	-2.03913	0
60.257	0.00940363	-1.93661	0
60.265	0.00936545	-1.83384	0
60.274	0.00938454	-1.73106	0
60.2842	0.00942272	-1.6281	0
60.2958	0.00928908	-1.52545	0
60.309	0.00942272	-1.42236	0
60.324	0.00940363	-1.31959	0
60.3416	0.00944181	-1.21821	0
60.362	0.00928908	-1.11709	0
60.3864	0.00926999	-1.01642	0
60.4158	0.00934635	-0.915875	0
60.4532	0.00947999	-0.814565	0
60.5002	0.00942272	-0.714146	0
60.5638	0.00938454	-0.613791	0
60.6544	0.00942272	-0.513118	0
60.793	0.00938454	-0.412784	0
61.0262	0.00944181	-0.312544	0
61.4924	0.00942272	-0.212469	0
62.8328	0.00940363	-0.112407	0
75.228	0.00934635	-0.0235508	0
95.228	0.00936545	-0.010665	0
115.228	0.00928908	-0.00698829	0
135.228	0.00944181	-0.00511974	0
155.228	0.00936545	-0.00403237	0
175.228	0.00928908	-0.00339503	0
195.228	0.00936545	-0.00292741	0
215.228	0.00930818	-0.00254725	0
235.228	0.00934635	-0.00235742	0
255.228	0.00938454	-0.00206651	0
275.228	0.00932727	-0.00191316	0
295.228	0.00944181	-0.00177197	0
315.228	0.00938454	-0.00161779	0
335.228	0.00934635	-0.00150321	0
355.228	0.00934635	-0.00144878	0
375.228	0.00938454	-0.00137793	0
395.228	0.00944181	-0.0012631	0
415.228	0.00934635	-0.00121866	0
435.228	0.00940363	-0.00115214	0
455.228	0.00942272	-0.00111242	0
475.228	0.00940363	-0.00106404	0
495.228	0.00938454	-0.00101579	0
515.228	0.00919363	-0.000987971	0
535.228	0.00940363	-0.000950414	0
555.228	0.00926999	-0.000894523	0
575.228	0.00928908	-0.000884019	0
595.228	0.00936545	-0.0008816	0
615.228	0.00942272	-0.000827619	0
635.228	0.00934635	-0.000812914	0
655.228	0.00932727	-0.000803811	0
675.228	0.00938454	-0.000753204	0
695.228	0.00926999	-0.000729205	0
715.228	0.00938454	-0.00073207	0
735.228	0.00942272	-0.000693558	0
755.228	0.00934635	-0.000687128	0
775.228	0.00930818	-0.000977913	0
795.228	0.00936545	-0.000653008	0
815.228	0.00942272	-0.000609785	0
835.228	0.00928908	-0.000618442	0
855.228	0.00934635	-0.000671405	0
875.228	0.00940363	-0.00060291	0
895.228	0.00944181	-0.000588333	0
915.228	0.00940363	-0.000572737	0
935.228	0.00932727	-0.000546255	0
955.228	0.00936545	-0.000562742	0
975.228	0.00932727	-0.000567262	0
995.228	0.00938454	-0.000588524	0
1015.23	0.0094609	-0.000522957	0
1035.23	0.00934635	-0.000502778	0
1055.23	0.00928908	-0.000524612	0
1075.23	0.00940363	-0.000515254	0
1095.23	0.00949908	-0.000474386	0
1115.23	0.00930818	-0.000484062	0
1135.23	0.00936545	-0.00041996	0
1155.23	0.00944181	-0.00045217	0
1175.23	0.00934635	-0.000463565	0
1195.23	0.00940363	-0.000431354	0
1215.23	0.00938454	-0.000423397	0
1235.23	0.00940363	-0.00043371	0
1255.23	0.00934635	-0.000434855	0
1275.23	0.00938454	-0.000429636	0
1295.23	0.00932727	-0.000405892	0
1315.23	0.00940363	-0.000409711	0
1335.23	0.00944181	-0.000410411	0
1355.23	0.00930818	-0.000384885	0
1375.23	0.00942272	-0.000386922	0
1395.23	0.00928908	-0.000392205	0
1415.23	0.00938454	-0.00038202	0
1435.23	0.00934635	-0.000348664	0
1455.23	0.00938454	-0.000370753	0
1475.23	0.00936545	-0.000777648	0
1495.23	0.00936545	-0.000408756	0
1515.23	0.00940363	-0.000337651	0
1535.23	0.00936545	-0.000360504	0
1555.23	0.00932727	-0.000345545	0
1575.23	0.00938454	-0.000337269	0
1595.23	0.00932727	-0.000351019	0
1615.23	0.00928908	-0.000324411	0
1635.23	0.00928908	-0.000357512	0
1655.23	0.00940363	-0.000330267	0
1675.23	0.0092509	-0.000307032	0
1695.23	0.00934635	-0.000285834	0
1715.23	0.00926999	-0.000310915	0
1735.23	0.00934635	-0.000338479	0
1755.23	0.00934635	-0.000310915	0
1775.23	0.00936545	-0.000318109	0
1795.23	0.00938454	-0.000282843	0
1815.23	0.00938454	-0.000350956	0
1835.23	0.00940363	-0.000302895	0
1855.23	0.00930818	-0.000289336	0
1860.05	0.00938454	-0.000401372	0