File: EXPERIMENTAL-DATA/Electrochemical-cycling/S-series/2024-07-04_S29_Icell_t1800_C0010_J01_deltaX-109,9mm_12mmLi-polished_02_MB_C06.txt
time/s	Ewe/V	I/mA	error	Ece/V
60.053	2.94401	-0.0250234	0	-0.000717916
60.174	0.00925581	-36.5374	0	5.58521e-06
60.1748	0.00931308	-36.3159	0	-0.000147132
60.1756	0.0092749	-36.0854	0	-0.000108953
60.1764	0.00933218	-35.8613	0	-5.16839e-05
60.1772	0.00931308	-35.6436	0	-7.07736e-05
60.178	0.00933218	-35.4284	0	0.000120123
60.1794	0.00933218	-35.0554	0	6.28543e-05
60.1804	0.00933218	-34.8001	0	-0.000108953
60.1818	0.00942764	-34.4564	0	-0.000108953
60.1832	0.00921763	-34.117	0	-1.35045e-05
60.1846	0.00942764	-33.7828	0	-1.35045e-05
60.1862	0.00933218	-33.427	0	4.37646e-05
60.1878	0.00942764	-33.0743	0	-7.07736e-05
60.1894	0.00933218	-32.735	0	6.28543e-05
60.191	0.00933218	-32.3976	0	-1.35045e-05
60.1926	0.00942764	-32.0863	0	2.46749e-05
60.194	0.00921763	-31.8106	0	-0.000108953
60.1956	0.00923672	-31.5095	0	0.000101034
60.1972	0.00931308	-31.2116	0	-1.35045e-05
60.1988	0.00935127	-30.9379	0	-7.07736e-05
60.2004	0.00937036	-30.6476	0	2.46749e-05
60.202	0.00935127	-30.377	0	8.1944e-05
60.2036	0.00929399	-30.116	0	4.37646e-05
60.2052	0.00933218	-29.8486	0	-3.25942e-05
60.2068	0.00935127	-29.6061	0	2.46749e-05
60.2084	0.00938945	-29.361	0	6.28543e-05
60.21	0.00929399	-29.1216	0	-7.07736e-05
60.2118	0.00938945	-28.846	0	-7.07736e-05
60.2134	0.00933218	-28.6264	0	5.58521e-06
60.2152	0.00931308	-28.3705	0	2.46749e-05
60.217	0.0092749	-28.1247	0	-0.000128043
60.2188	0.00937036	-27.8815	0	6.28543e-05
60.2206	0.00935127	-27.6447	0	5.58521e-06
60.2226	0.00925581	-27.3952	0	-5.16839e-05
60.2244	0.00933218	-27.159	0	-8.98633e-05
60.2266	0.00940854	-26.9012	0	-3.25942e-05
60.2288	0.00925581	-26.6332	0	8.1944e-05
60.2312	0.00940854	-26.3556	0	0.000101034
60.2334	0.0092749	-26.1194	0	0.000158303
60.2356	0.0092749	-25.8756	0	-7.07736e-05
60.2378	0.00937036	-25.6388	0	2.46749e-05
60.24	0.00935127	-25.4052	0	-5.16839e-05
60.2424	0.00933218	-25.1594	0	-1.35045e-05
60.2448	0.00935127	-24.9086	0	-8.98633e-05
60.2474	0.00935127	-24.6686	0	2.46749e-05
60.2498	0.00942764	-24.4363	0	-7.07736e-05
60.2524	0.00940854	-24.1931	0	-3.25942e-05
60.255	0.00938945	-23.9575	0	-3.25942e-05
60.2574	0.00940854	-23.7449	0	-1.35045e-05
60.2602	0.00933218	-23.5011	0	5.58521e-06
60.2628	0.0092749	-23.2777	0	0.000101034
60.2656	0.00937036	-23.044	0	-5.16839e-05
60.2684	0.0092749	-22.8193	0	-1.35045e-05
60.2714	0.0092749	-22.5825	0	-3.25942e-05
60.2746	0.0092749	-22.3355	0	-0.000147132
60.2778	0.00933218	-22.0968	0	4.37646e-05
60.281	0.00931308	-21.8619	0	-3.25942e-05
60.2842	0.00935127	-21.6365	0	-5.16839e-05
60.2878	0.00931308	-21.3857	0	2.46749e-05
60.2912	0.00933218	-21.1463	0	2.46749e-05
60.2946	0.00935127	-20.9197	0	8.1944e-05
60.2986	0.00931308	-20.6638	0	-1.35045e-05
60.3022	0.00931308	-20.4435	0	-8.98633e-05
60.3062	0.00925581	-20.2048	0	-5.16839e-05
60.3102	0.00937036	-19.9743	0	-3.25942e-05
60.3142	0.00921763	-19.7362	0	-0.000108953
60.3182	0.00935127	-19.5083	0	-8.98633e-05
60.3226	0.00929399	-19.2664	0	4.37646e-05
60.3268	0.00933218	-19.0532	0	-7.07736e-05
60.3314	0.00933218	-18.8138	0	2.46749e-05
60.3358	0.00931308	-18.5923	0	8.1944e-05
60.3408	0.00937036	-18.3389	0	-5.16839e-05
60.3456	0.00921763	-18.1142	0	-3.25942e-05
60.3506	0.00933218	-17.8895	0	-0.000147132
60.3556	0.00942764	-17.6635	0	2.46749e-05
60.3606	0.00933218	-17.4521	0	-1.35045e-05
60.3658	0.00935127	-17.2249	0	5.58521e-06
60.371	0.00942764	-17.0078	0	6.28543e-05
60.3766	0.00929399	-16.7856	0	-3.25942e-05
60.3826	0.00940854	-16.5641	0	-7.07736e-05
60.3884	0.00938945	-16.3432	0	-7.07736e-05
60.3946	0.00937036	-16.1165	0	-7.07736e-05
60.4006	0.00929399	-15.9115	0	-8.98633e-05
60.4068	0.0092749	-15.6957	0	-1.35045e-05
60.4138	0.00937036	-15.4666	0	-5.16839e-05
60.4208	0.00933218	-15.2418	0	-3.25942e-05
60.4282	0.00944673	-15.0184	0	-8.98633e-05
60.4352	0.00929399	-14.8077	0	-0.000128043
60.4426	0.00938945	-14.5957	0	2.46749e-05
60.4502	0.00929399	-14.3792	0	-3.25942e-05
60.4582	0.00938945	-14.1698	0	4.37646e-05
60.4662	0.00944673	-13.9521	0	-5.16839e-05
60.4752	0.00929399	-13.7293	0	-3.25942e-05
60.4846	0.00937036	-13.5001	0	-3.25942e-05
60.4938	0.00933218	-13.283	0	-1.35045e-05
60.5034	0.0092749	-13.0691	0	-8.98633e-05
60.5132	0.00940854	-12.8546	0	4.37646e-05
60.5236	0.00925581	-12.6388	0	8.1944e-05
60.5342	0.00938945	-12.4262	0	-5.16839e-05
60.5456	0.00940854	-12.2072	0	-5.16839e-05
60.5574	0.00942764	-11.9907	0	6.28543e-05
60.5694	0.00929399	-11.7685	0	8.1944e-05
60.5816	0.00940854	-11.5534	0	-3.25942e-05
60.5948	0.00940854	-11.3433	0	-0.000128043
60.6078	0.00938945	-11.1332	0	6.28543e-05
60.6214	0.00935127	-10.9238	0	4.37646e-05
60.6358	0.00933218	-10.7131	0	-3.25942e-05
60.6506	0.00929399	-10.4992	0	-1.35045e-05
60.667	0.00933218	-10.2783	0	0.000120123
60.683	0.00933218	-10.072	0	6.28543e-05
60.7002	0.00935127	-9.85111	0	-8.98633e-05
60.7182	0.00935127	-9.64039	0	2.46749e-05
60.736	0.00937036	-9.43413	0	2.46749e-05
60.7558	0.00935127	-9.2266	0	6.28543e-05
60.7764	0.00929399	-9.01398	0	-3.25942e-05
60.7972	0.00933218	-8.80454	0	0.000120123
60.8208	0.00925581	-8.59	0	-1.35045e-05
60.8456	0.00931308	-8.38183	0	0.000177393
60.8706	0.00931308	-8.17366	0	-1.35045e-05
60.8982	0.00931308	-7.95658	0	5.58521e-06
60.9272	0.00938945	-7.74523	0	-7.07736e-05
60.9572	0.00933218	-7.53897	0	-5.16839e-05
60.9892	0.00931308	-7.33144	0	-3.25942e-05
61.0248	0.00933218	-7.11754	0	5.58521e-06
61.0628	0.00935127	-6.90428	0	6.28543e-05
61.1028	0.00938945	-6.6993	0	-3.25942e-05
61.1458	0.00929399	-6.48731	0	6.28543e-05
61.193	0.00938945	-6.27532	0	4.37646e-05
61.2452	0.00929399	-6.06079	0	4.37646e-05
61.2992	0.00938945	-5.85453	0	4.37646e-05
61.3566	0.00942764	-5.647	0	-7.07736e-05
61.4198	0.00929399	-5.44137	0	5.58521e-06
61.4886	0.00931308	-5.23639	0	-0.000128043
61.5632	0.00938945	-5.02504	0	-3.25942e-05
61.6452	0.00931308	-4.81623	0	-5.16839e-05
61.738	0.00937036	-4.60615	0	-1.35045e-05
61.8396	0.0092749	-4.38971	0	-8.98633e-05
61.9604	0.00940854	-4.18876	0	5.58521e-06
62.0754	0.00935127	-3.98731	0	-0.000108953
62.2016	0.00933218	-3.7861	0	8.1944e-05
62.34	0.00933218	-3.58477	0	2.46749e-05
62.4924	0.00938945	-3.38382	0	-8.98633e-05
62.6636	0.00938945	-3.18205	0	-5.16839e-05
62.8554	0.00942764	-2.9811	0	-8.98633e-05
63.0716	0.00938945	-2.7797	0	-7.07736e-05
63.3184	0.00931308	-2.57876	0	-7.07736e-05
63.603	0.00925581	-2.37698	0	5.58521e-06
63.9378	0.00937036	-2.17565	0	-7.07736e-05
64.3324	0.00935127	-1.9747	0	-7.07736e-05
64.8182	0.00937036	-1.77382	0	-7.07736e-05
65.4246	0.00937036	-1.57287	0	4.37646e-05
66.2166	0.00940854	-1.37167	0	-5.16839e-05
67.2916	0.00938945	-1.17135	0	6.28543e-05
68.8418	0.00933218	-0.970914	0	0.000139213
71.3046	0.00938945	-0.770602	0	2.46749e-05
75.92	0.00944673	-0.5701	0	8.1944e-05
88.327	0.00935127	-0.369348	0	5.58521e-06
125.065	0.00938945	-0.215164	0	-7.07736e-05
165.065	0.00933218	-0.159527	0	5.58521e-06
205.065	0.00935127	-0.128252	0	4.37646e-05
245.065	0.00937036	-0.109172	0	-0.000108953
285.065	0.00937036	-0.095361	0	-1.35045e-05
325.065	0.00940854	-0.0845034	0	-8.98633e-05
365.065	0.00935127	-0.0750586	0	-3.25942e-05
405.065	0.0092749	-0.0674723	0	-0.000147132
445.065	0.00935127	-0.0607897	0	-3.25942e-05
485.065	0.00923672	-0.0551318	0	5.58521e-06
525.065	0.00944673	-0.0507785	0	0.000101034
565.065	0.00933218	-0.0467308	0	5.58521e-06
605.065	0.00946582	-0.04341	0	-0.000128043
645.065	0.00937036	-0.0405156	0	-7.07736e-05
685.065	0.00935127	-0.0375353	0	-8.98633e-05
725.065	0.00946582	-0.0349813	0	5.58521e-06
765.065	0.00938945	-0.0327874	0	5.58521e-06
805.065	0.00933218	-0.0306425	0	5.58521e-06
845.065	0.00942764	-0.0286746	0	-8.98633e-05
885.065	0.00938945	-0.0268733	0	2.46749e-05
925.065	0.00940854	-0.025742	0	-3.25942e-05
965.065	0.00935127	-0.0245191	0	-5.16839e-05
1005.06	0.0092749	-0.0231059	0	-3.25942e-05
1045.06	0.00935127	-0.0221445	0	-7.07736e-05
1085.06	0.00929399	-0.021115	0	-3.25942e-05
1125.06	0.00937036	-0.0204062	0	6.28543e-05
1165.06	0.00931308	-0.019455	0	2.46749e-05
1205.06	0.00933218	-0.0187634	0	-8.98633e-05
1245.06	0.00931308	-0.0179693	0	-3.25942e-05
1285.06	0.00942764	-0.017298	0	4.37646e-05
1325.06	0.00935127	-0.0167419	0	-5.16839e-05
1365.06	0.00931308	-0.0161527	0	4.37646e-05
1405.06	0.00944673	-0.015895	0	2.46749e-05
1445.06	0.00938945	-0.0152301	0	-0.000108953
1485.06	0.00938945	-0.014676	0	2.46749e-05
1525.06	0.00933218	-0.0145608	0	4.37646e-05
1565.06	0.00937036	-0.0139207	0	-5.16839e-05
1605.06	0.00935127	-0.0133888	0	-8.98633e-05
1645.06	0.00933218	-0.013021	0	-8.98633e-05
1685.06	0.00935127	-0.0127525	0	-7.07736e-05
1725.06	0.00929399	-0.0124592	0	4.37646e-05
1765.06	0.00933218	-0.0128397	0	-7.07736e-05
1805.06	0.00942764	-0.0123357	0	-0.000128043
1845.06	0.00944673	-0.0120768	0	-1.35045e-05
1860.05	0.00938945	-0.0119336	0	-7.07736e-05