File: EXPERIMENTAL-DATA/Electrochemical-cycling/S-series/2024-06-14_S05_TPcell_t1800_C0500_J01_only-2-electrodes_02_MB_C09.txt
time/s	Ewe/V	I/mA	error
60.053	2.90672	-0.025008	0
60.1732	0.0084906	-6.1385	0
60.1738	0.0083379	-6.07937	0
60.1744	0.00845243	-6.02405	0
60.175	0.00841425	-5.96175	0
60.1756	0.00841425	-5.90707	0
60.1762	0.0084906	-5.84921	0
60.177	0.00847151	-5.78372	0
60.1776	0.00845243	-5.72587	0
60.1784	0.0083379	-5.65974	0
60.1792	0.00839516	-5.59489	0
60.1798	0.00841425	-5.53831	0
60.1806	0.00843334	-5.47091	0
60.1814	0.00837608	-5.41878	0
60.1822	0.00845243	-5.35711	0
60.1828	0.00841425	-5.30688	0
60.1836	0.00841425	-5.25029	0
60.1844	0.00837608	-5.19053	0
60.1854	0.00845243	-5.1225	0
60.1862	0.00839516	-5.06846	0
60.187	0.00843334	-5.01314	0
60.1878	0.00835699	-4.96037	0
60.1888	0.00843334	-4.89616	0
60.1898	0.00847151	-4.83321	0
60.1908	0.00843334	-4.77154	0
60.1918	0.00841425	-4.7175	0
60.1928	0.00847151	-4.66155	0
60.1938	0.00841425	-4.60051	0
60.1948	0.0084906	-4.54711	0
60.1958	0.00850969	-4.48861	0
60.197	0.00837608	-4.43012	0
60.198	0.00837608	-4.37799	0
60.1992	0.00831882	-4.32013	0
60.2006	0.00841425	-4.25782	0
60.2018	0.00841425	-4.20251	0
60.2028	0.00850969	-4.15101	0
60.2042	0.00843334	-4.10078	0
60.2054	0.00841425	-4.04928	0
60.2066	0.00847151	-3.99587	0
60.208	0.00847151	-3.93738	0
60.2094	0.00837608	-3.88397	0
60.2108	0.00843334	-3.8293	0
60.2124	0.0084906	-3.77716	0
60.214	0.00843334	-3.71676	0
60.2156	0.00841425	-3.66399	0
60.2174	0.00850969	-3.61122	0
60.219	0.00843334	-3.56036	0
60.2204	0.0084906	-3.51013	0
60.222	0.00841425	-3.45863	0
60.2242	0.00839516	-3.39505	0
60.226	0.00835699	-3.34355	0
60.2282	0.00843334	-3.29078	0
60.2302	0.00850969	-3.23674	0
60.2324	0.00845243	-3.18397	0
60.2346	0.00852877	-3.13247	0
60.2368	0.00850969	-3.07652	0
60.2392	0.00845243	-3.02502	0
60.2416	0.00845243	-2.97161	0
60.2442	0.00843334	-2.92139	0
60.2468	0.00835699	-2.86989	0
60.2498	0.00847151	-2.81712	0
60.2524	0.00841425	-2.76434	0
60.2556	0.00852877	-2.70903	0
60.259	0.00839516	-2.65372	0
60.2624	0.00841425	-2.60285	0
60.2656	0.00845243	-2.55072	0
60.2696	0.00839516	-2.49795	0
60.3032	0.00852877	-2.16227	0
60.3088	0.0084906	-2.11052	0
60.3146	0.00847151	-2.06017	0
60.321	0.00835699	-2.00893	0
60.3276	0.00843334	-1.95858	0
60.3346	0.00847151	-1.90817	0
60.3422	0.00841425	-1.8575	0
60.3502	0.0083379	-1.80734	0
60.359	0.0083379	-1.75597	0
60.3686	0.00837608	-1.7046	0
60.3788	0.00843334	-1.65457	0
60.3898	0.00847151	-1.60314	0
60.4018	0.00831882	-1.55202	0
60.4148	0.00850969	-1.5018	0
60.4292	0.00841425	-1.45062	0
60.445	0.00841425	-1.39964	0
60.4622	0.00847151	-1.34922	0
60.4816	0.00835699	-1.29849	0
60.503	0.00835699	-1.24763	0
60.527	0.00839516	-1.19754	0
60.5538	0.00850969	-1.14738	0
60.5842	0.00843334	-1.09702	0
60.619	0.00839516	-1.04667	0
60.659	0.00837608	-0.996642	0
60.706	0.00841425	-0.946418	0
60.7606	0.00839516	-0.896258	0
60.8248	0.0083379	-0.846035	0
60.904	0.00839516	-0.795811	0
60.999	0.00828064	-0.745779	0
61.1194	0.00843334	-0.695491	0
61.2698	0.00847151	-0.645268	0
61.4686	0.00831882	-0.595108	0
61.7322	0.0084906	-0.545012	0
62.0936	0.00845243	-0.494598	0
62.6752	0.00841425	-0.444567	0
63.468	0.00847151	-0.394561	0
64.7094	0.00839516	-0.344561	0
66.7412	0.00843334	-0.294522	0
70.23	0.0083379	-0.244446	0
76.4856	0.00845243	-0.194388	0
86.4856	0.00835699	-0.152074	0
96.4856	0.00837608	-0.127672	0
106.486	0.00839516	-0.111383	0
116.486	0.00847151	-0.0992998	0
126.486	0.00839516	-0.0900671	0
136.486	0.00843334	-0.0821706	0
146.486	0.00839516	-0.0758458	0
156.486	0.00839516	-0.070361	0
166.486	0.0084906	-0.0658305	0
176.486	0.00837608	-0.0617328	0
186.486	0.00856695	-0.0578004	0
196.486	0.0083379	-0.0550389	0
206.486	0.00843334	-0.0519592	0
216.486	0.00845243	-0.0495986	0
226.486	0.00841425	-0.047397	0
236.486	0.00841425	-0.04482	0
246.486	0.00845243	-0.0436037	0
256.486	0.00845243	-0.0417795	0
266.486	0.00843334	-0.0400636	0
276.486	0.0084906	-0.0385092	0
286.486	0.0084906	-0.0369428	0
296.486	0.00843334	-0.0356207	0
306.486	0.00843334	-0.0342795	0
316.486	0.00843334	-0.033021	0
326.486	0.0084906	-0.0318236	0
336.486	0.00835699	-0.0307057	0
346.486	0.00850969	-0.0296775	0
356.486	0.00841425	-0.028762	0
366.486	0.00835699	-0.0277707	0
376.486	0.00841425	-0.0268851	0
386.486	0.00850969	-0.0260758	0
396.486	0.00845243	-0.0252563	0
406.486	0.0084906	-0.0243776	0
416.486	0.0083379	-0.0236975	0
426.486	0.0083379	-0.023088	0
436.486	0.00847151	-0.0223264	0
446.486	0.0083379	-0.0216691	0
456.486	0.00847151	-0.0210488	0
466.486	0.00839516	-0.0204793	0
476.486	0.00841425	-0.0198355	0
486.486	0.00847151	-0.0193933	0
496.486	0.00847151	-0.0188283	0
506.486	0.00847151	-0.0183702	0
516.486	0.00839516	-0.0179299	0
526.486	0.00845243	-0.0174604	0
536.486	0.00847151	-0.0169965	0
546.486	0.00841425	-0.0166053	0
556.486	0.00850969	-0.0162375	0
566.486	0.00847151	-0.0158163	0
576.486	0.00845243	-0.0154708	0
586.486	0.00850969	-0.0150426	0
596.486	0.00847151	-0.0147156	0
606.486	0.00845243	-0.0144032	0
616.486	0.00837608	-0.0141494	0
626.486	0.00845243	-0.0138064	0
636.486	0.00839516	-0.0134648	0
646.486	0.0084906	-0.0132465	0
656.486	0.00850969	-0.0128584	0
666.486	0.00854786	-0.0125988	0
676.486	0.00847151	-0.0123672	0
686.486	0.00845243	-0.0121376	0
696.486	0.00845243	-0.0118894	0
706.486	0.0084906	-0.0116998	0
716.486	0.00843334	-0.0113906	0
726.486	0.00852877	-0.0112869	0
736.486	0.00841425	-0.0110171	0
746.486	0.00843334	-0.0108345	0
756.486	0.00843334	-0.0105991	0
766.486	0.00828064	-0.0103389	0
776.486	0.0084906	-0.0102027	0
786.486	0.00835699	-0.00999659	0
796.486	0.00839516	-0.0097879	0
806.486	0.00839516	-0.0095843	0
816.486	0.00841425	-0.00949205	0
826.486	0.00850969	-0.00929036	0
836.486	0.00845243	-0.00923373	0
846.486	0.00843334	-0.00901296	0
856.486	0.00850969	-0.00877118	0
866.486	0.00839516	-0.00868593	0
876.486	0.00845243	-0.00855359	0
886.486	0.0084906	-0.00834426	0
896.486	0.00845243	-0.00827237	0
906.486	0.00845243	-0.0081553	0
916.486	0.0084906	-0.00801469	0
926.486	0.00839516	-0.0078798	0
936.486	0.00847151	-0.00783018	0
946.486	0.0084906	-0.00762531	0
956.486	0.00841425	-0.00748152	0
966.486	0.00843334	-0.00736635	0
976.486	0.00845243	-0.00729191	0
986.486	0.00847151	-0.00723274	0
996.486	0.00847151	-0.00713794	0
1006.49	0.00845243	-0.00697697	0
1016.49	0.0084906	-0.00682237	0
1026.49	0.00841425	-0.00670848	0
1036.49	0.00850969	-0.00664231	0
1046.49	0.0084906	-0.00661686	0
1056.49	0.00843334	-0.00653542	0
1066.49	0.0083379	-0.00640244	0
1076.49	0.00847151	-0.00635791	0
1086.49	0.00829973	-0.00636618	0
1096.49	0.00847151	-0.00611423	0
1106.49	0.00841425	-0.00613777	0
1116.49	0.00850969	-0.00601624	0
1126.49	0.00841425	-0.00595453	0
1136.49	0.00843334	-0.00590554	0
1146.49	0.00845243	-0.00572357	0
1156.49	0.00847151	-0.00569176	0
1166.49	0.00845243	-0.00560205	0
1176.49	0.00841425	-0.00555879	0
1186.49	0.00845243	-0.00554033	0
1196.49	0.00845243	-0.00550407	0
1206.49	0.00835699	-0.00543599	0
1216.49	0.00839516	-0.00528329	0
1226.49	0.00847151	-0.00528266	0
1236.49	0.00839516	-0.00529284	0
1246.49	0.00847151	-0.00517831	0
1256.49	0.00845243	-0.00508287	0
1266.49	0.00839516	-0.00499571	0
1276.49	0.00845243	-0.00497789	0
1286.49	0.00841425	-0.00486464	0
1296.49	0.00847151	-0.0048271	0
1306.49	0.00841425	-0.00483474	0
1316.49	0.00843334	-0.00481374	0
1326.49	0.00843334	-0.0047253	0
1336.49	0.00847151	-0.00470049	0
1346.49	0.00845243	-0.00462732	0
1356.49	0.00850969	-0.00464768	0
1366.49	0.00852877	-0.00448544	0
1376.49	0.00845243	-0.00453699	0
1386.49	0.00843334	-0.00448761	0
1396.49	0.00843334	-0.00446419	0
1406.49	0.0084906	-0.00441252	0
1416.49	0.00847151	-0.00438439	0
1426.49	0.00841425	-0.00433577	0
1436.49	0.0084906	-0.0042862	0
1446.49	0.00839516	-0.00427462	0
1456.49	0.00854786	-0.00423835	0
1466.49	0.00850969	-0.00419228	0
1476.49	0.00839516	-0.00412737	0
1486.49	0.00837608	-0.00410961	0
1496.49	0.00847151	-0.00406921	0
1506.49	0.00831882	-0.00403141	0
1516.49	0.00841425	-0.00399253	0
1526.49	0.00839516	-0.00395084	0
1536.49	0.00850969	-0.00394658	0
1546.49	0.00852877	-0.00389192	0
1556.49	0.00843334	-0.00387022	0
1566.49	0.00841425	-0.00385176	0
1576.49	0.00843334	-0.00378189	0
1586.49	0.00843334	-0.0038181	0
1596.49	0.0084906	-0.00373499	0
1606.49	0.00841425	-0.00370967	0
1616.49	0.00837608	-0.00365863	0
1626.49	0.00856695	-0.00365297	0
1636.49	0.00858603	-0.00360677	0
1646.49	0.00850969	-0.00360861	0
1656.49	0.00843334	-0.00357591	0
1666.49	0.0084906	-0.00355281	0
1676.49	0.00847151	-0.00352525	0
1686.49	0.00845243	-0.00348605	0
1696.49	0.00847151	-0.00347956	0
1706.49	0.00845243	-0.00344342	0
1716.49	0.00843334	-0.00341128	0
1726.49	0.00847151	-0.0034137	0
1736.49	0.0084906	-0.00339639	0
1746.49	0.00847151	-0.00334937	0
1756.49	0.00850969	-0.0033535	0
1766.49	0.00837608	-0.00330737	0
1776.49	0.00841425	-0.00329438	0
1786.49	0.00841425	-0.00326066	0
1796.49	0.00839516	-0.00323756	0
1806.49	0.00843334	-0.00322445	0
1816.49	0.0084906	-0.00319912	0
1826.49	0.00845243	-0.0031815	0
1836.49	0.0084906	-0.00313313	0
1846.49	0.00845243	-0.00312441	0
1856.49	0.00845243	-0.00311392	0
1860.05	0.0084906	-0.00309801	0