File: EXPERIMENTAL-DATA/Electrochemical-cycling/S-series/2024-07-04_S28_Icell_t1800_C0010_J01_deltaX-110,0mm_12mmLi-polished_04_CP_C05.txt
time/s	Ewe/V	I/mA	error	Ece/V
1860.21	-0.0221743	-1.12339	0	4.405e-06
1860.21	-0.0380504	-1.13082	0	-0.00015594
1860.21	-0.0426677	-1.13085	0	4.95916e-05
1860.21	-0.0448057	-1.13082	0	-4.58467e-05
1860.21	-0.0465239	-1.13091	0	6.86792e-05
1860.21	-0.047822	-1.13082	0	-7.67139e-06
1860.21	-0.0490247	-1.13089	0	8.77669e-05
1860.21	-0.050151	-1.13084	0	-0.000122197
1860.21	-0.0521173	-1.13088	0	-7.67139e-06
1860.21	-0.0531863	-1.13088	0	3.05039e-05
1860.21	-0.0549426	-1.13088	0	0.000106855
1860.21	-0.0566607	-1.13089	0	-4.58467e-05
1860.21	-0.0582834	-1.13091	0	-4.58467e-05
1860.21	-0.0598106	-1.13084	0	6.86792e-05
1860.21	-0.061166	-1.13086	0	6.86792e-05
1860.21	-0.0626741	-1.13092	0	3.05039e-05
1860.21	-0.0641059	-1.13091	0	4.95916e-05
1860.21	-0.0652513	-1.1309	0	3.05039e-05
1860.21	-0.0665876	-1.1309	0	4.95916e-05
1860.21	-0.0678475	-1.13081	0	-8.4022e-05
1860.21	-0.0689357	-1.1309	0	-4.58467e-05
1860.21	-0.0701384	-1.13094	0	-4.58467e-05
1860.21	-0.0713219	-1.13086	0	6.86792e-05
1860.21	-0.0724292	-1.1309	0	-4.58467e-05
1860.21	-0.07346	-1.13086	0	6.86792e-05
1860.21	-0.07451	-1.1309	0	-4.58467e-05
1860.21	-0.0755218	-1.13089	0	-7.67139e-06
1860.22	-0.0768963	-1.13088	0	-4.58467e-05
1860.22	-0.0779844	-1.13091	0	1.14163e-05
1860.22	-0.0795498	-1.13089	0	0.000106855
1860.22	-0.0809434	-1.13091	0	-7.67139e-06
1860.22	-0.0821842	-1.13095	0	6.86792e-05
1860.22	-0.0834824	-1.13089	0	3.05039e-05
1860.22	-0.0849141	-1.13087	0	-4.58467e-05
1860.22	-0.0862695	-1.1309	0	0.00014503
1860.22	-0.0875676	-1.13085	0	4.95916e-05
1860.22	-0.088694	-1.13091	0	-6.49344e-05
1860.22	-0.0898966	-1.13093	0	-2.6759e-05
1860.22	-0.0911184	-1.13092	0	0.00014503
1860.22	-0.092302	-1.13092	0	-4.58467e-05
1860.22	-0.0934856	-1.13093	0	-4.58467e-05
1860.22	-0.0946883	-1.1309	0	0.00014503
1860.22	-0.0958146	-1.13088	0	4.95916e-05
1860.22	-0.09696	-1.13091	0	3.05039e-05
1860.23	-0.0981054	-1.13095	0	-0.000122197
1860.23	-0.0991363	-1.13086	0	-7.67139e-06
1860.23	-0.100205	-1.13093	0	8.77669e-05
1860.23	-0.101675	-1.13087	0	-7.67139e-06
1860.23	-0.102782	-1.13095	0	-6.49344e-05
1860.23	-0.104081	-1.13093	0	1.14163e-05
1860.23	-0.105531	-1.13092	0	1.14163e-05
1860.23	-0.106849	-1.13089	0	6.86792e-05
1860.23	-0.10809	-1.13093	0	-8.4022e-05
1860.23	-0.10912	-1.13086	0	0.000106855
1860.23	-0.110495	-1.13088	0	-2.6759e-05
1860.23	-0.111659	-1.13084	0	3.05039e-05
1860.23	-0.113015	-1.1309	0	3.05039e-05
1860.23	-0.114198	-1.13092	0	8.77669e-05
1860.24	-0.115458	-1.13087	0	-2.6759e-05
1860.24	-0.116566	-1.13088	0	4.95916e-05
1860.24	-0.117902	-1.1309	0	-6.49344e-05
1860.24	-0.119028	-1.1309	0	4.95916e-05
1860.24	-0.120269	-1.1309	0	-4.58467e-05
1860.24	-0.121376	-1.13093	0	-7.67139e-06
1860.24	-0.12256	-1.13092	0	-2.6759e-05
1860.24	-0.123629	-1.13089	0	6.86792e-05
1860.24	-0.124755	-1.13095	0	0.000125942
1860.24	-0.125958	-1.13087	0	8.77669e-05
1860.24	-0.127065	-1.1309	0	4.95916e-05
1860.24	-0.128115	-1.1309	0	-2.6759e-05
1860.25	-0.129184	-1.13098	0	3.05039e-05
1860.25	-0.130482	-1.13099	0	4.95916e-05
1860.25	-0.131513	-1.13084	0	-7.67139e-06
1860.25	-0.132582	-1.13093	0	-2.6759e-05
1860.25	-0.133918	-1.13091	0	-4.58467e-05
1860.25	-0.135045	-1.13094	0	0.00014503
1860.25	-0.136114	-1.13086	0	1.14163e-05
1860.25	-0.137145	-1.13088	0	-4.58467e-05
1860.25	-0.138195	-1.13091	0	3.05039e-05
1860.25	-0.139512	-1.1309	0	6.86792e-05
1860.25	-0.140581	-1.13089	0	6.86792e-05
1860.26	-0.141898	-1.13089	0	-8.4022e-05
1860.26	-0.142929	-1.13087	0	4.95916e-05
1860.26	-0.144017	-1.13086	0	0.000106855
1860.26	-0.145086	-1.13086	0	4.95916e-05
1860.26	-0.146232	-1.13095	0	-6.49344e-05
1860.26	-0.147339	-1.13093	0	4.95916e-05
1860.26	-0.14837	-1.13087	0	1.14163e-05
1860.26	-0.149496	-1.13088	0	6.86792e-05
1860.26	-0.150546	-1.13085	0	-0.000122197
1860.26	-0.151596	-1.13087	0	-2.6759e-05
1860.27	-0.152627	-1.13087	0	-2.6759e-05
1860.27	-0.153791	-1.13089	0	-7.67139e-06
1860.27	-0.154899	-1.13091	0	4.95916e-05
1860.27	-0.15612	-1.13084	0	3.05039e-05
1860.27	-0.157189	-1.13091	0	3.05039e-05
1860.27	-0.158201	-1.13092	0	-0.000141285
1860.27	-0.159308	-1.13093	0	3.05039e-05
1860.27	-0.160377	-1.13095	0	4.95916e-05
1860.27	-0.161389	-1.13093	0	-7.67139e-06
1860.28	-0.162458	-1.13086	0	8.77669e-05
1860.28	-0.163527	-1.1309	0	-2.6759e-05
1860.28	-0.164577	-1.1309	0	-6.49344e-05
1860.28	-0.165665	-1.13092	0	0.000125942
1860.28	-0.166696	-1.13086	0	3.05039e-05
1860.28	-0.167899	-1.13097	0	-2.6759e-05
1860.28	-0.169006	-1.13092	0	1.14163e-05
1860.28	-0.170094	-1.13091	0	3.05039e-05
1860.29	-0.171163	-1.13091	0	-2.6759e-05
1860.29	-0.172213	-1.13091	0	1.14163e-05
1860.29	-0.173321	-1.13091	0	8.77669e-05
1860.29	-0.174409	-1.13086	0	-0.00010311
1860.29	-0.175478	-1.13089	0	-2.6759e-05
1860.3	-0.176585	-1.1309	0	-4.58467e-05
1860.31	-0.175535	-1.13088	0	-6.49344e-05
1860.32	-0.174523	-1.13086	0	6.86792e-05
1860.32	-0.173492	-1.13092	0	3.05039e-05
1860.33	-0.172328	-1.13094	0	6.86792e-05
1860.33	-0.171259	-1.13091	0	-2.6759e-05
1860.34	-0.170228	-1.13093	0	1.14163e-05
1860.34	-0.169178	-1.13093	0	4.95916e-05
1860.35	-0.168166	-1.13087	0	-7.67139e-06
1860.35	-0.167078	-1.13097	0	-2.6759e-05
1860.36	-0.166047	-1.13088	0	0.000125942
1860.36	-0.165016	-1.13089	0	-7.67139e-06
1860.37	-0.163947	-1.1309	0	0.000106855
1860.37	-0.162936	-1.13085	0	8.77669e-05
1860.38	-0.161886	-1.1309	0	4.95916e-05
1860.38	-0.160759	-1.13088	0	-2.6759e-05
1860.39	-0.15969	-1.1309	0	-6.49344e-05
1860.39	-0.158678	-1.13089	0	1.14163e-05
1860.4	-0.15759	-1.13091	0	1.14163e-05
1860.4	-0.156579	-1.13091	0	3.05039e-05
1860.41	-0.155471	-1.13091	0	-7.67139e-06
1860.41	-0.154421	-1.1309	0	-7.67139e-06
1860.42	-0.153371	-1.13091	0	6.86792e-05
1860.42	-0.152264	-1.13086	0	-7.67139e-06
1860.43	-0.151138	-1.13091	0	-7.67139e-06
1860.43	-0.150126	-1.13092	0	1.14163e-05
1860.44	-0.149057	-1.13087	0	-2.6759e-05
1860.45	-0.148007	-1.13084	0	-2.6759e-05
1860.45	-0.146957	-1.13098	0	4.95916e-05
1860.46	-0.145926	-1.1309	0	8.77669e-05
1860.46	-0.144781	-1.13094	0	-7.67139e-06
1860.47	-0.14375	-1.13086	0	6.86792e-05
1860.48	-0.1427	-1.13085	0	6.86792e-05
1860.48	-0.141688	-1.1309	0	-7.67139e-06
1860.49	-0.140619	-1.13092	0	-2.6759e-05
1860.5	-0.139512	-1.13091	0	-4.58467e-05
1860.5	-0.138443	-1.1309	0	4.95916e-05
1860.51	-0.137412	-1.13091	0	0.000106855
1860.52	-0.1364	-1.13092	0	3.05039e-05
1860.52	-0.13535	-1.1309	0	-6.49344e-05
1860.53	-0.134319	-1.13088	0	-4.58467e-05
1860.54	-0.133269	-1.13083	0	-2.6759e-05
1860.55	-0.1322	-1.13085	0	6.86792e-05
1860.56	-0.131189	-1.1309	0	4.95916e-05
1860.57	-0.130177	-1.13086	0	0.000106855
1860.58	-0.129165	-1.13089	0	-7.67139e-06
1860.59	-0.128115	-1.13091	0	3.05039e-05
1860.6	-0.127046	-1.13091	0	6.86792e-05
1860.62	-0.125996	-1.13088	0	-7.67139e-06
1860.63	-0.124927	-1.13091	0	-4.58467e-05
1860.65	-0.123858	-1.1309	0	3.05039e-05
1860.66	-0.122846	-1.13083	0	6.86792e-05
1860.68	-0.121834	-1.1309	0	-4.58467e-05
1860.7	-0.120804	-1.13086	0	3.05039e-05
1860.73	-0.119792	-1.13088	0	8.77669e-05
1860.75	-0.118761	-1.13088	0	0.000125942
1860.79	-0.117711	-1.1309	0	4.95916e-05
1860.82	-0.11668	-1.13084	0	-2.6759e-05
1860.87	-0.115592	-1.1309	0	-4.58467e-05
1860.93	-0.114561	-1.13088	0	-2.6759e-05
1861.01	-0.113511	-1.1309	0	-7.67139e-06
1861.12	-0.112461	-1.13093	0	-0.00010311
1861.28	-0.111449	-1.13086	0	4.95916e-05
1861.5	-0.110419	-1.13091	0	-8.4022e-05
1861.9	-0.109407	-1.13091	0	-8.4022e-05
1862.96	-0.108376	-1.13095	0	1.14163e-05
1866.66	-0.109388	-1.1309	0	-0.00010311
1870.83	-0.110399	-1.13083	0	-7.67139e-06
1880.83	-0.110839	-1.1309	0	-2.6759e-05
1890.83	-0.110399	-1.13095	0	-6.49344e-05
1896.21	-0.110075	-1.13093	0	-6.49344e-05