File: EXPERIMENTAL-DATA/Electrochemical-cycling/S-series/2024-06-27_S19_Icell_t1800_C0010_J01_deltaX-109,9mm_04_CP_C06.txt
time/s	Ewe/V	I/mA	error	Ece/V
1860.21	0.00257895	-0.194799	0	-0.000236832
1860.21	-0.000307888	-0.195997	0	-0.000477374
1860.21	-0.00158888	-0.196001	0	-1.35045e-05
1860.21	-0.00269621	-0.195998	0	-3.25942e-05
1860.21	-0.00395628	-0.195996	0	6.28543e-05
1860.21	-0.00496815	-0.195993	0	-7.07736e-05
1860.21	-0.00599911	-0.195998	0	-5.16839e-05
1860.21	-0.00703007	-0.195998	0	6.28543e-05
1860.21	-0.00804194	-0.195994	0	6.28543e-05
1860.21	-0.00911109	-0.195991	0	2.46749e-05
1860.21	-0.0102184	-0.19599	0	-1.35045e-05
1860.21	-0.0114594	-0.195993	0	-7.07736e-05
1860.21	-0.0126431	-0.195992	0	-1.35045e-05
1860.21	-0.0137504	-0.196001	0	4.37646e-05
1860.22	-0.0147623	-0.195996	0	-8.98633e-05
1860.22	-0.0159651	-0.195993	0	-7.07736e-05
1860.22	-0.0169769	-0.195997	0	2.46749e-05
1860.22	-0.018027	-0.19599	0	6.28543e-05
1860.22	-0.0190389	-0.195998	0	5.58521e-06
1860.22	-0.0202417	-0.195995	0	4.37646e-05
1860.22	-0.0214826	-0.195994	0	-1.35045e-05
1860.22	-0.0226281	-0.195995	0	0.000196482
1860.22	-0.0238309	-0.195992	0	5.58521e-06
1860.23	-0.0249765	-0.195996	0	2.46749e-05
1860.23	-0.0262556	-0.195997	0	5.58521e-06
1860.23	-0.0273629	-0.195994	0	5.58521e-06
1860.23	-0.0285466	-0.195992	0	-1.35045e-05
1860.23	-0.0295585	-0.195998	0	-7.07736e-05
1860.23	-0.0307422	-0.195997	0	4.37646e-05
1860.23	-0.0317732	-0.195996	0	5.58521e-06
1860.24	-0.0329569	-0.195995	0	4.37646e-05
1860.24	-0.0340833	-0.195998	0	5.58521e-06
1860.24	-0.0352097	-0.195992	0	4.37646e-05
1860.24	-0.0363552	-0.196001	0	8.1944e-05
1860.24	-0.0374626	-0.195999	0	-5.16839e-05
1860.24	-0.0384744	-0.195995	0	6.28543e-05
1860.24	-0.0395627	-0.195993	0	0.000139213
1860.25	-0.04088	-0.195994	0	-0.000147132
1860.25	-0.0419682	-0.195997	0	-3.25942e-05
1860.25	-0.0430565	-0.195996	0	-3.25942e-05
1860.25	-0.0440683	-0.195993	0	8.1944e-05
1860.25	-0.0452711	-0.195993	0	-3.25942e-05
1860.25	-0.046283	-0.195988	0	-5.16839e-05
1860.26	-0.0473712	-0.195997	0	5.58521e-06
1860.26	-0.0485168	-0.195992	0	0.000101034
1860.26	-0.0495477	-0.19599	0	4.37646e-05
1860.26	-0.0508078	-0.195992	0	4.37646e-05
1860.26	-0.0521251	-0.195992	0	0.000101034
1860.26	-0.0531943	-0.195996	0	-0.000147132
1860.27	-0.0542061	-0.195997	0	-1.35045e-05
1860.27	-0.0552371	-0.195993	0	-5.16839e-05
1860.27	-0.0562681	-0.195994	0	-3.25942e-05
1860.27	-0.0572799	-0.195994	0	-0.000204402
1860.27	-0.0583491	-0.195991	0	6.28543e-05
1860.27	-0.059571	-0.195997	0	6.28543e-05
1860.28	-0.0607738	-0.195999	0	0.000101034
1860.28	-0.0618429	-0.195999	0	-0.000147132
1860.28	-0.062912	-0.195997	0	0.000120123
1860.28	-0.0639621	-0.195996	0	-7.07736e-05
1860.28	-0.0650503	-0.195994	0	-5.16839e-05
1860.29	-0.0661386	-0.195994	0	-8.98633e-05
1860.29	-0.0671505	-0.195994	0	6.28543e-05
1860.29	-0.0681623	-0.195997	0	0.000101034
1860.29	-0.0694606	-0.195993	0	-7.07736e-05
1860.29	-0.0706634	-0.195996	0	4.37646e-05
1860.3	-0.0717134	-0.195996	0	-5.16839e-05
1860.3	-0.0729162	-0.195999	0	-0.000128043
1860.3	-0.0739853	-0.196003	0	-3.25942e-05
1860.3	-0.0750163	-0.195995	0	-3.25942e-05
1860.3	-0.0761046	-0.195994	0	-8.98633e-05
1860.31	-0.0771737	-0.195996	0	-5.16839e-05
1860.31	-0.0782619	-0.195992	0	-7.07736e-05
1860.31	-0.0794647	-0.195994	0	6.28543e-05
1860.31	-0.0804766	-0.195993	0	2.46749e-05
1860.31	-0.0815266	-0.196001	0	-3.25942e-05
1860.32	-0.0825767	-0.196001	0	-0.000108953
1860.32	-0.0837413	-0.195997	0	2.46749e-05
1860.32	-0.0848295	-0.195999	0	0.000120123
1860.32	-0.0858414	-0.195995	0	8.1944e-05
1860.33	-0.0869678	-0.195997	0	0.000120123
1860.33	-0.088037	-0.195993	0	-3.25942e-05
1860.33	-0.0890489	-0.195996	0	-5.16839e-05
1860.33	-0.0900989	-0.195997	0	-5.16839e-05
1860.33	-0.091149	-0.195996	0	-8.98633e-05
1860.34	-0.0922181	-0.195995	0	-5.16839e-05
1860.34	-0.0933254	-0.195997	0	2.46749e-05
1860.34	-0.0944137	-0.195996	0	0.000158303
1860.34	-0.0955974	-0.195998	0	6.28543e-05
1860.35	-0.0967811	-0.196002	0	6.28543e-05
1860.35	-0.097812	-0.195997	0	-0.000147132
1860.35	-0.0989575	-0.19599	0	-1.35045e-05
1860.35	-0.100027	-0.195996	0	2.46749e-05
1860.36	-0.101058	-0.195991	0	0.000139213
1860.36	-0.102203	-0.195996	0	2.46749e-05
1860.36	-0.103406	-0.195992	0	6.28543e-05
1860.36	-0.104513	-0.195995	0	-3.25942e-05
1860.37	-0.105621	-0.195996	0	4.37646e-05
1860.37	-0.106785	-0.196001	0	5.58521e-06
1860.37	-0.107835	-0.195996	0	5.58521e-06
1860.38	-0.108943	-0.195999	0	-3.25942e-05
1860.38	-0.110012	-0.195999	0	-0.000147132
1860.38	-0.111138	-0.195999	0	-5.16839e-05
1860.38	-0.112169	-0.195995	0	-5.16839e-05
1860.39	-0.113296	-0.195994	0	0.000101034
1860.39	-0.114327	-0.196	0	-1.35045e-05
1860.39	-0.115377	-0.195997	0	-5.16839e-05
1860.4	-0.116388	-0.195992	0	-1.35045e-05
1860.4	-0.1174	-0.195999	0	-7.07736e-05
1860.4	-0.118469	-0.195993	0	-3.25942e-05
1860.41	-0.1195	-0.195996	0	4.37646e-05
1860.41	-0.12057	-0.195994	0	-7.07736e-05
1860.41	-0.121601	-0.195992	0	-3.25942e-05
1860.42	-0.122612	-0.196	0	-5.16839e-05
1860.42	-0.123739	-0.195995	0	4.37646e-05
1860.42	-0.124808	-0.195993	0	5.58521e-06
1860.43	-0.125858	-0.195995	0	5.58521e-06
1860.43	-0.127004	-0.195996	0	6.28543e-05
1860.43	-0.12813	-0.196	0	-5.16839e-05
1860.44	-0.12918	-0.195992	0	5.58521e-06
1860.44	-0.130192	-0.195996	0	6.28543e-05
1860.44	-0.131356	-0.195997	0	-5.16839e-05
1860.45	-0.132483	-0.195998	0	-7.07736e-05
1860.45	-0.133628	-0.195992	0	2.46749e-05
1860.46	-0.134736	-0.195999	0	-3.25942e-05
1860.46	-0.135786	-0.195996	0	-8.98633e-05
1860.47	-0.136836	-0.195996	0	5.58521e-06
1860.47	-0.137905	-0.195996	0	5.58521e-06
1860.47	-0.138936	-0.195999	0	6.28543e-05
1860.48	-0.139948	-0.195996	0	-1.35045e-05
1860.48	-0.141132	-0.195996	0	8.1944e-05
1860.49	-0.142143	-0.195992	0	5.58521e-06
1860.49	-0.143155	-0.195992	0	0.000101034
1860.5	-0.144167	-0.195993	0	-3.25942e-05
1860.5	-0.145217	-0.195991	0	2.46749e-05
1860.51	-0.146267	-0.195995	0	-3.25942e-05
1860.51	-0.147298	-0.195995	0	-3.25942e-05
1860.52	-0.14831	-0.195994	0	4.37646e-05
1860.53	-0.149437	-0.195999	0	-1.35045e-05
1860.53	-0.150467	-0.195996	0	0.000158303
1860.54	-0.151479	-0.195999	0	-5.16839e-05
1860.55	-0.152491	-0.195999	0	6.28543e-05
1860.55	-0.153522	-0.195997	0	-1.35045e-05
1860.57	-0.154534	-0.195997	0	-3.25942e-05
1860.61	-0.153522	-0.195994	0	-3.25942e-05
1860.62	-0.152491	-0.195997	0	4.37646e-05
1860.63	-0.15146	-0.195994	0	0.000101034
1860.63	-0.150448	-0.195996	0	4.37646e-05
1860.64	-0.149303	-0.196001	0	-5.16839e-05
1860.64	-0.148272	-0.195997	0	-0.000108953
1860.65	-0.147145	-0.195993	0	4.37646e-05
1860.65	-0.146095	-0.195994	0	4.37646e-05
1860.65	-0.145064	-0.195999	0	-8.98633e-05
1860.66	-0.144053	-0.195999	0	5.58521e-06
1860.66	-0.142983	-0.195997	0	-0.000204402
1860.66	-0.141972	-0.195993	0	-1.35045e-05
1860.67	-0.140902	-0.195996	0	4.37646e-05
1860.67	-0.139776	-0.195994	0	-7.07736e-05
1860.68	-0.138726	-0.195997	0	-3.25942e-05
1860.68	-0.137619	-0.195997	0	-3.25942e-05
1860.68	-0.136492	-0.195996	0	-7.07736e-05
1860.69	-0.135347	-0.195999	0	8.1944e-05
1860.69	-0.134316	-0.195994	0	-3.25942e-05
1860.69	-0.133304	-0.195994	0	6.28543e-05
1860.7	-0.132216	-0.196	0	8.1944e-05
1860.7	-0.131185	-0.195998	0	-1.35045e-05
1860.7	-0.130077	-0.196001	0	-5.16839e-05
1860.71	-0.129065	-0.195999	0	-7.07736e-05
1860.71	-0.128015	-0.195997	0	-0.000128043
1860.72	-0.126984	-0.195995	0	5.58521e-06
1860.72	-0.125953	-0.195999	0	-3.25942e-05
1860.72	-0.124903	-0.195996	0	2.46749e-05
1860.73	-0.123777	-0.195995	0	5.58521e-06
1860.73	-0.122765	-0.195989	0	-7.07736e-05
1860.73	-0.12162	-0.195994	0	0.000101034
1860.74	-0.120608	-0.195995	0	-5.16839e-05
1860.74	-0.119596	-0.195994	0	8.1944e-05
1860.75	-0.118584	-0.195994	0	-1.35045e-05
1860.75	-0.117496	-0.195995	0	4.37646e-05
1860.76	-0.116427	-0.195996	0	-1.35045e-05
1860.76	-0.115396	-0.195997	0	-8.98633e-05
1860.77	-0.114269	-0.195991	0	-0.000128043
1860.77	-0.1132	-0.195997	0	-0.000108953
1860.78	-0.11215	-0.195999	0	5.58521e-06
1860.78	-0.111119	-0.196007	0	-7.07736e-05
1860.79	-0.110069	-0.195992	0	2.46749e-05
1860.79	-0.109038	-0.195995	0	-8.98633e-05
1860.8	-0.107969	-0.195995	0	6.28543e-05
1860.8	-0.106881	-0.195996	0	8.1944e-05
1860.81	-0.105754	-0.195999	0	-5.16839e-05
1860.82	-0.104704	-0.195997	0	8.1944e-05
1860.82	-0.103692	-0.195997	0	8.1944e-05
1860.83	-0.102661	-0.195994	0	2.46749e-05
1860.84	-0.10163	-0.195994	0	8.1944e-05
1860.85	-0.100619	-0.195992	0	8.1944e-05
1860.85	-0.0995112	-0.195998	0	-1.35045e-05
1860.86	-0.0984421	-0.195996	0	0.000101034
1860.87	-0.0974302	-0.195997	0	-0.000108953
1860.88	-0.0962274	-0.195998	0	0.000139213
1860.9	-0.0952155	-0.195999	0	-3.25942e-05
1860.91	-0.0941464	-0.195997	0	-5.16839e-05
1860.92	-0.0931154	-0.195997	0	4.37646e-05
1860.93	-0.0920463	-0.195997	0	-8.98633e-05
1860.95	-0.0909962	-0.195999	0	0.000101034
1860.96	-0.0899844	-0.195996	0	-8.98633e-05
1860.98	-0.0889534	-0.195994	0	4.37646e-05
1861	-0.0877506	-0.195994	0	6.28543e-05
1861.02	-0.0867387	-0.195996	0	4.37646e-05
1861.05	-0.0857269	-0.195995	0	-1.35045e-05
1861.08	-0.0846768	-0.195995	0	-0.000128043
1861.11	-0.0836649	-0.195994	0	0.000101034
1861.14	-0.0826531	-0.196001	0	8.1944e-05
1861.19	-0.0816221	-0.195995	0	-8.98633e-05
1861.24	-0.0806102	-0.195999	0	8.1944e-05
1861.3	-0.0795984	-0.195993	0	2.46749e-05
1861.38	-0.0785292	-0.195992	0	-8.98633e-05
1861.49	-0.0775173	-0.195996	0	6.28543e-05
1861.64	-0.0765055	-0.195994	0	-1.35045e-05
1861.84	-0.0754936	-0.195994	0	-5.16839e-05
1862.19	-0.0744626	-0.195996	0	-1.35045e-05
1863.04	-0.0733935	-0.196	0	-8.98633e-05
1866.93	-0.0744436	-0.195996	0	-1.35045e-05
1869.63	-0.0754745	-0.195996	0	-0.000108953
1872.19	-0.0765818	-0.195999	0	4.37646e-05
1874.92	-0.0775937	-0.195997	0	0.000158303
1877.74	-0.0786056	-0.195999	0	0.000158303
1880.72	-0.0796175	-0.195996	0	4.37646e-05
1883.89	-0.0806293	-0.196001	0	-8.98633e-05
1887.52	-0.0816603	-0.195999	0	5.58521e-06
1891.53	-0.0826722	-0.195998	0	-0.000128043
1895.75	-0.0837031	-0.195999	0	-5.16839e-05
1896.21	-0.0835122	-0.195995	0	2.46749e-05