File: EXPERIMENTAL-DATA/Electrochemical-cycling/S-series/2024-06-27_S16_Icell_t1800_C0010_J01_deltaX-110,2mm_02_MB_C03.txt
time/s	Ewe/V	I/mA	error	Ece/V
60.053	2.91528	-0.0250202	0	-0.000632264
60.1436	0.00919998	-6.55913	0	6.08409e-05
60.1444	0.00921907	-6.44741	0	0.000118098
60.1452	0.00929542	-6.34154	0	-7.27589e-05
60.146	0.00933359	-6.24082	0	-1.55018e-05
60.1472	0.00927633	-6.09722	0	-3.45875e-05
60.1484	0.00929542	-5.96247	0	-5.36732e-05
60.1496	0.00923816	-5.83446	0	4.17552e-05
60.1508	0.00925724	-5.71536	0	-5.36732e-05
60.152	0.00929542	-5.60141	0	7.99266e-05
60.1532	0.00931451	-5.49427	0	-1.55018e-05
60.1544	0.00931451	-5.3917	0	0.000213526
60.156	0.00925724	-5.26376	0	6.08409e-05
60.1576	0.00931451	-5.14516	0	-5.36732e-05
60.1592	0.00927633	-5.03102	0	2.26695e-05
60.1608	0.00916181	-4.92401	0	0.000118098
60.1624	0.00931451	-4.82228	0	4.17552e-05
60.1644	0.00933359	-4.704	0	-0.00011093
60.1664	0.00929542	-4.5912	0	6.08409e-05
60.1684	0.00939085	-4.48545	0	3.58385e-06
60.1706	0.0091809	-4.37583	0	6.08409e-05
60.173	0.00940994	-4.26245	0	-5.36732e-05
60.1754	0.00933359	-4.15595	0	-7.27589e-05
60.178	0.00925724	-4.0469	0	-7.27589e-05
60.1808	0.00925724	-3.93658	0	-3.45875e-05
60.1836	0.00933359	-3.83268	0	7.99266e-05
60.1868	0.00929542	-3.72032	0	-5.36732e-05
60.19	0.00929542	-3.61413	0	-9.18446e-05
60.1934	0.00933359	-3.50864	0	0.000118098
60.197	0.00929542	-3.40239	0	-1.55018e-05
60.201	0.00931451	-3.29277	0	6.08409e-05
60.205	0.00935268	-3.18843	0	4.17552e-05
60.2094	0.00933359	-3.08211	0	4.17552e-05
60.214	0.00931451	-2.97726	0	-5.36732e-05
60.2188	0.00927633	-2.87419	0	-1.55018e-05
60.224	0.00933359	-2.76991	0	4.17552e-05
60.2296	0.00923816	-2.66538	0	-3.45875e-05
60.2354	0.00925724	-2.56339	0	-3.45875e-05
60.2418	0.00933359	-2.45956	0	2.26695e-05
60.2488	0.00927633	-2.35464	0	9.90123e-05
60.256	0.00921907	-2.25367	0	9.90123e-05
60.264	0.00927633	-2.15156	0	-7.27589e-05
60.2726	0.00939085	-2.049	0	-3.45875e-05
60.282	0.00935268	-1.94745	0	3.58385e-06
60.2922	0.00929542	-1.84604	0	6.08409e-05
60.3034	0.00929542	-1.74526	0	-0.00011093
60.3158	0.00923816	-1.64378	0	2.26695e-05
60.3294	0.00929542	-1.54306	0	-5.36732e-05
60.3448	0.00929542	-1.44139	0	6.08409e-05
60.362	0.00923816	-1.34036	0	6.08409e-05
60.3818	0.00927633	-1.2385	0	2.26695e-05
60.404	0.00937177	-1.13778	0	0.000118098
60.43	0.00933359	-1.0365	0	-3.45875e-05
60.4604	0.00927633	-0.935589	0	7.99266e-05
60.4974	0.00929542	-0.835128	0	4.17552e-05
60.543	0.00923816	-0.73403	0	-9.18446e-05
60.601	0.00931451	-0.633251	0	-3.45875e-05
60.6788	0.00925724	-0.532281	0	4.17552e-05
60.789	0.00925724	-0.431692	0	-3.45875e-05
60.9708	0.00935268	-0.326722	0	0.000194441
61.279	0.00935268	-0.226568	0	4.17552e-05
62.0156	0.00931451	-0.126522	0	3.58385e-06
67.5172	0.00931451	-0.0264468	0	-3.45875e-05
87.5172	0.00929542	-0.0071179	0	2.26695e-05
107.517	0.00935268	-0.00420486	0	-3.45875e-05
127.517	0.00933359	-0.00296038	0	4.17552e-05
147.517	0.00935268	-0.00233099	0	4.17552e-05
167.517	0.00925724	-0.00197476	0	-5.36732e-05
187.517	0.00923816	-0.00168428	0	-5.36732e-05
207.517	0.00929542	-0.00156462	0	7.99266e-05
227.517	0.00933359	-0.00131678	0	2.26695e-05
247.517	0.00923816	-0.00126555	0	4.17552e-05
267.517	0.00925724	-0.00108327	0	7.99266e-05
287.517	0.00927633	-0.00108511	0	7.99266e-05
307.517	0.00933359	-0.000920078	0	6.08409e-05
327.517	0.00914272	-0.000925042	0	0.000118098
347.517	0.00935268	-0.000983469	0	-5.36732e-05
367.517	0.0091809	-0.000914222	0	9.90123e-05
387.517	0.00925724	-0.000866169	0	2.26695e-05
407.517	0.00931451	-0.00078623	0	6.08409e-05
427.517	0.00921907	-0.000766181	0	0.000156269
447.517	0.00939085	-0.000743587	0	-3.45875e-05
467.517	0.00935268	-0.000852804	0	0.000194441
487.517	0.00925724	-0.000782474	0	9.90123e-05
507.517	0.00925724	-0.000677013	0	-5.36732e-05
527.517	0.00925724	-0.000660974	0	0.000118098
547.517	0.00923816	-0.000628642	0	7.99266e-05
567.517	0.00919998	-0.000634433	0	7.99266e-05
587.517	0.00933359	-0.000631824	0	6.08409e-05
607.517	0.00931451	-0.000577534	0	0.000156269
627.517	0.00933359	-0.000625778	0	9.90123e-05
647.517	0.00921907	-0.000520252	0	0.000118098
667.517	0.00929542	-0.000567223	0	2.26695e-05
687.517	0.0094672	-0.000672176	0	-3.45875e-05
707.517	0.00929542	-0.000564295	0	0.000137184
727.517	0.00937177	-0.000602037	0	3.58385e-06
747.517	0.00923816	-0.000487029	0	4.17552e-05
767.517	0.00935268	-0.000549848	0	-5.36732e-05
787.517	0.00935268	-0.00058288	0	9.90123e-05
807.517	0.00923816	-0.000487283	0	6.08409e-05
827.517	0.00931451	-0.000463161	0	3.58385e-06
847.517	0.00940994	-0.000505104	0	7.99266e-05
867.517	0.00929542	-0.000413836	0	4.17552e-05
887.517	0.00925724	-0.000579507	0	-1.55018e-05
907.517	0.00931451	-0.000430002	0	6.08409e-05
927.517	0.00925724	-0.00046157	0	3.58385e-06
947.517	0.00929542	-0.000502177	0	0.000118098
967.517	0.00923816	-0.000411863	0	9.90123e-05
987.517	0.00931451	-0.000560413	0	-3.45875e-05
1007.52	0.00921907	-0.000398879	0	0.000156269
1027.52	0.00921907	-0.000387804	0	4.17552e-05
1047.52	0.00933359	-0.000419373	0	2.26695e-05
1067.52	0.00927633	-0.00044655	0	4.17552e-05
1087.52	0.00925724	-0.00045616	0	-1.55018e-05
1107.52	0.00923816	-0.000445722	0	3.58385e-06
1127.52	0.00935268	-0.000382713	0	-9.18446e-05
1147.52	0.00923816	-0.000399452	0	0.000118098
1167.52	0.00929542	-0.000382203	0	3.58385e-06
1187.52	0.00935268	-0.000376603	0	0.000156269
1207.52	0.00933359	-0.000477418	0	2.26695e-05
1227.52	0.00927633	-0.000495048	0	3.58385e-06
1247.52	0.00925724	-0.000431275	0	9.90123e-05
1267.52	0.00925724	-0.000346307	0	3.58385e-06
1287.52	0.00935268	-0.000358082	0	0.000156269
1307.52	0.00933359	-0.000418927	0	0.000118098
1327.52	0.00931451	-0.000347325	0	9.90123e-05
1347.52	0.00927633	-0.000406898	0	0.000118098
1367.52	0.00925724	-0.000382267	0	3.58385e-06
1387.52	0.00927633	-0.000341661	0	-7.27589e-05
1407.52	0.00925724	-0.000300673	0	0.000118098
1427.52	0.00916181	-0.000424465	0	6.08409e-05
1447.52	0.00925724	-0.000361137	0	2.26695e-05
1467.52	0.00929542	-0.000409762	0	2.26695e-05
1487.52	0.00939085	-0.000343761	0	9.90123e-05
1507.52	0.00925724	-0.000398561	0	2.26695e-05
1527.52	0.00925724	-0.000511724	0	0.000175355
1547.52	0.00929542	-0.000381376	0	6.08409e-05
1567.52	0.00925724	-0.000342806	0	3.58385e-06
1587.52	0.00933359	-0.000290935	0	0.000118098
1607.52	0.00931451	-0.000390541	0	0.000137184
1627.52	0.00933359	-0.000358845	0	-9.18446e-05
1647.52	0.00929542	-0.000340197	0	9.90123e-05
1667.52	0.00937177	-0.000299909	0	-3.45875e-05
1687.52	0.00935268	-0.000364001	0	3.58385e-06
1707.52	0.00937177	-0.000457433	0	7.99266e-05
1727.52	0.00925724	-0.000314102	0	4.17552e-05
1747.52	0.00923816	-0.000358845	0	4.17552e-05
1767.52	0.00923816	-0.000314357	0	4.17552e-05
1787.52	0.00944812	-0.000430766	0	2.26695e-05
1807.52	0.00921907	-0.000278206	0	3.58385e-06
1827.52	0.00925724	-0.00025192	0	4.17552e-05
1847.52	0.00919998	-0.000258921	0	7.99266e-05
1860.05	0.00937177	-0.000310092	0	0.000118098