File: EXPERIMENTAL-DATA/Electrochemical-cycling/S-series/2024-06-19_S08_Icell_t1800_C0010_J01_04_CP_C10.txt
time/s	Ewe/V	I/mA	error	Ece/V
1860.21	-0.00610241	-0.194742	0	-0.000993925
1860.21	-0.0139153	-0.196	0	3.37954e-05
1860.21	-0.016989	-0.196	0	7.19764e-05
1860.21	-0.0196808	-0.196	0	-4.38561e-06
1860.21	-0.0222772	-0.196002	0	7.19764e-05
1860.21	-0.0248927	-0.195997	0	-4.38561e-06
1860.21	-0.0294172	-0.195997	0	0.000110157
1860.21	-0.0318227	-0.196003	0	0.00020561
1860.21	-0.03503	-0.195995	0	0.000129248
1860.21	-0.0393064	-0.196004	0	-2.34761e-05
1860.21	-0.0423228	-0.19599	0	7.19764e-05
1860.21	-0.0453391	-0.195996	0	-4.25666e-05
1860.21	-0.0490428	-0.196001	0	-2.34761e-05
1860.21	-0.0529183	-0.195998	0	7.19764e-05
1860.21	-0.0556674	-0.196	0	1.47049e-05
1860.21	-0.0591419	-0.196	0	1.47049e-05
1860.22	-0.0625211	-0.196007	0	7.19764e-05
1860.22	-0.0659574	-0.195997	0	5.28859e-05
1860.22	-0.0691265	-0.196	0	5.28859e-05
1860.22	-0.0724102	-0.196002	0	5.28859e-05
1860.22	-0.075522	-0.195997	0	1.47049e-05
1860.22	-0.0784811	-0.195991	0	-4.38561e-06
1860.22	-0.0815357	-0.196004	0	1.47049e-05
1860.22	-0.0844375	-0.195995	0	0.000186519
1860.22	-0.0871103	-0.196	0	9.10669e-05
1860.22	-0.0900312	-0.196004	0	7.19764e-05
1860.22	-0.0925894	-0.195997	0	-4.25666e-05
1860.22	-0.0952621	-0.196002	0	0.000167429
1860.22	-0.097744	-0.196003	0	5.28859e-05
1860.23	-0.100417	-0.195999	0	0.000148338
1860.23	-0.102803	-0.196002	0	5.28859e-05
1860.23	-0.105228	-0.196003	0	0.000110157
1860.23	-0.107404	-0.196	0	-4.25666e-05
1860.23	-0.109752	-0.196004	0	1.47049e-05
1860.23	-0.112119	-0.196002	0	-4.38561e-06
1860.23	-0.114277	-0.196004	0	0.000110157
1860.23	-0.116892	-0.195999	0	7.19764e-05
1860.23	-0.118954	-0.195999	0	1.47049e-05
1860.23	-0.121608	-0.195995	0	-4.25666e-05
1860.23	-0.124414	-0.196004	0	3.37954e-05
1860.24	-0.12701	-0.196012	0	9.10669e-05
1860.24	-0.129588	-0.196004	0	-4.38561e-06
1860.24	-0.132394	-0.196001	0	5.28859e-05
1860.24	-0.135143	-0.196005	0	-8.07476e-05
1860.24	-0.137453	-0.196006	0	1.47049e-05
1860.24	-0.139954	-0.196006	0	7.19764e-05
1860.24	-0.142436	-0.196003	0	1.47049e-05
1860.24	-0.144593	-0.196001	0	-4.38561e-06
1860.25	-0.14698	-0.196004	0	1.47049e-05
1860.25	-0.149442	-0.196	0	0.000129248
1860.25	-0.151943	-0.196003	0	-8.07476e-05
1860.25	-0.15433	-0.196001	0	1.47049e-05
1860.25	-0.156754	-0.196003	0	5.28859e-05
1860.25	-0.158969	-0.195999	0	-6.16571e-05
1860.25	-0.161241	-0.195999	0	-4.25666e-05
1860.26	-0.163703	-0.196002	0	-6.16571e-05
1860.26	-0.165861	-0.196004	0	5.28859e-05
1860.26	-0.168171	-0.196005	0	0.000129248
1860.26	-0.170443	-0.196003	0	3.37954e-05
1860.26	-0.172676	-0.196005	0	3.37954e-05
1860.26	-0.17491	-0.196005	0	0.000148338
1860.27	-0.177315	-0.195997	0	-4.38561e-06
1860.27	-0.179721	-0.196002	0	1.47049e-05
1860.27	-0.182088	-0.195998	0	5.28859e-05
1860.27	-0.184379	-0.196004	0	5.28859e-05
1860.28	-0.186555	-0.196004	0	-4.25666e-05
1860.29	-0.184494	-0.196005	0	3.37954e-05
1860.29	-0.182394	-0.196	0	-2.34761e-05
1860.29	-0.179835	-0.196	0	7.19764e-05
1860.3	-0.177525	-0.196	0	3.37954e-05
1860.3	-0.175273	-0.196002	0	1.47049e-05
1860.3	-0.17302	-0.196003	0	-4.25666e-05
1860.3	-0.1705	-0.196005	0	3.37954e-05
1860.3	-0.168304	-0.195999	0	7.19764e-05
1860.3	-0.165975	-0.195997	0	-8.07476e-05
1860.3	-0.163837	-0.196001	0	-4.38561e-06
1860.3	-0.161355	-0.196004	0	-4.38561e-06
1860.31	-0.158988	-0.195998	0	7.19764e-05
1860.31	-0.156602	-0.196	0	9.10669e-05
1860.31	-0.154082	-0.195995	0	3.37954e-05
1860.31	-0.151905	-0.196002	0	5.28859e-05
1860.31	-0.149538	-0.196005	0	0.000167429
1860.31	-0.147132	-0.196005	0	0.000129248
1860.31	-0.144899	-0.196006	0	1.47049e-05
1860.31	-0.142684	-0.195998	0	-9.98381e-05
1860.32	-0.140202	-0.196	0	-4.25666e-05
1860.32	-0.137663	-0.196002	0	-2.34761e-05
1860.32	-0.135048	-0.196004	0	7.19764e-05
1860.32	-0.132585	-0.196002	0	0.000129248
1860.32	-0.130256	-0.196001	0	-4.25666e-05
1860.32	-0.127812	-0.196003	0	5.28859e-05
1860.32	-0.12556	-0.196	0	5.28859e-05
1860.33	-0.122963	-0.196	0	9.10669e-05
1860.33	-0.120577	-0.196	0	1.47049e-05
1860.33	-0.118267	-0.196003	0	5.28859e-05
1860.33	-0.116071	-0.196004	0	0.000110157
1860.34	-0.113876	-0.196002	0	-4.38561e-06
1860.34	-0.111833	-0.196002	0	1.47049e-05
1860.34	-0.109657	-0.196002	0	0.0002247
1860.34	-0.107538	-0.196002	0	-4.38561e-06
1860.35	-0.10538	-0.196002	0	7.19764e-05
1860.35	-0.103223	-0.196004	0	9.10669e-05
1860.36	-0.101047	-0.196003	0	7.19764e-05
1860.36	-0.0989085	-0.196005	0	0.000148338
1860.37	-0.0968849	-0.196005	0	5.28859e-05
1860.38	-0.0947467	-0.196005	0	1.47049e-05
1860.39	-0.0926658	-0.19601	0	3.37954e-05
1860.4	-0.0905657	-0.196001	0	0.000110157
1860.43	-0.0885039	-0.196002	0	9.10669e-05
1860.46	-0.0864612	-0.196006	0	5.28859e-05
1860.52	-0.0844184	-0.196008	0	7.19764e-05
1860.65	-0.0823757	-0.196002	0	3.37954e-05
1862.79	-0.0843994	-0.196002	0	-4.25666e-05
1864.25	-0.086423	-0.196006	0	-6.16571e-05
1865.8	-0.0884657	-0.196002	0	-4.25666e-05
1867.82	-0.0905085	-0.196004	0	1.47049e-05
1870	-0.0926276	-0.196	0	3.37954e-05
1872.7	-0.0946703	-0.196004	0	3.37954e-05
1875.95	-0.0967703	-0.196004	0	-4.38561e-06
1880.47	-0.098794	-0.196007	0	1.47049e-05
1884.58	-0.100856	-0.196002	0	-6.16571e-05
1892.13	-0.102899	-0.196002	0	7.19764e-05
1896.21	-0.103395	-0.196002	0	9.10669e-05