File: EXPERIMENTAL-DATA/Electrochemical-cycling/S-series/2024-07-04_S28_Icell_t1800_C0010_J01_deltaX-110,0mm_12mmLi-polished_02_MB_C05.txt
time/s	Ewe/V	I/mA	error	Ece/V
60.053	2.89691	-0.0250213	0	-0.000636973
60.1744	0.00935806	-32.4137	0	6.86792e-05
60.176	0.00935806	-32.0858	0	-7.67139e-06
60.1776	0.0092817	-31.7707	0	6.86792e-05
60.1792	0.00920534	-31.4587	0	3.05039e-05
60.1808	0.00924352	-31.1582	0	6.86792e-05
60.1824	0.00933897	-30.8603	0	3.05039e-05
60.184	0.00931988	-30.5719	0	-2.6759e-05
60.1856	0.00933897	-30.2905	0	-2.6759e-05
60.1872	0.00930079	-30.0097	0	-7.67139e-06
60.1888	0.0092817	-29.7443	0	1.14163e-05
60.1904	0.00918625	-29.4762	0	3.05039e-05
60.192	0.0092817	-29.2158	0	0.000202293
60.1936	0.0092817	-28.9625	0	4.95916e-05
60.1952	0.00924352	-28.7174	0	1.14163e-05
60.1968	0.00924352	-28.4742	0	-6.49344e-05
60.1984	0.0092817	-28.2284	0	-8.4022e-05
60.2	0.00935806	-27.9973	0	6.86792e-05
60.2018	0.00922443	-27.7344	0	4.95916e-05
60.2034	0.00930079	-27.5097	0	1.14163e-05
60.2054	0.00941533	-27.2283	0	6.86792e-05
60.2074	0.00930079	-26.959	0	0.000125942
60.2094	0.00930079	-26.6871	0	0.00014503
60.2114	0.00931988	-26.4331	0	1.14163e-05
60.2134	0.00931988	-26.181	0	-0.00010311
60.2154	0.00933897	-25.9282	0	0.000106855
60.2176	0.00935806	-25.666	0	-0.000122197
60.2198	0.00930079	-25.3998	0	-4.58467e-05
60.2222	0.00930079	-25.1223	0	3.05039e-05
60.2244	0.00939624	-24.8784	0	1.14163e-05
60.2264	0.00924352	-24.6486	0	-2.6759e-05
60.2286	0.00924352	-24.408	0	-2.6759e-05
60.231	0.00931988	-24.1552	0	4.95916e-05
60.2334	0.00924352	-23.9076	0	1.14163e-05
60.2356	0.00930079	-23.6752	0	-6.49344e-05
60.238	0.00931988	-23.4352	0	3.05039e-05
60.2406	0.00933897	-23.1767	0	-0.000141285
60.243	0.00922443	-22.9564	0	-8.4022e-05
60.2454	0.00935806	-22.7241	0	-7.67139e-06
60.2478	0.00922443	-22.5	0	-2.6759e-05
60.2504	0.00930079	-22.2784	0	-4.58467e-05
60.253	0.0092817	-22.0359	0	1.14163e-05
60.2556	0.00930079	-21.8181	0	-4.58467e-05
60.2584	0.00922443	-21.5807	0	0.000106855
60.2614	0.00930079	-21.333	0	4.95916e-05
60.2642	0.0092817	-21.1095	0	-2.6759e-05
60.2672	0.00930079	-20.8753	0	-7.67139e-06
60.2702	0.00930079	-20.6384	0	8.77669e-05
60.2734	0.0092817	-20.3971	0	-7.67139e-06
60.2766	0.00926261	-20.1699	0	-7.67139e-06
60.2798	0.00920534	-19.9451	0	3.05039e-05
60.2832	0.0092817	-19.7051	0	-0.00010311
60.2864	0.00914807	-19.4861	0	1.14163e-05
60.2902	0.00926261	-19.234	0	3.05039e-05
60.2936	0.00926261	-19.0201	0	6.86792e-05
60.297	0.00930079	-18.7998	0	-0.000160373
60.3008	0.00930079	-18.5579	0	4.95916e-05
60.3044	0.00939624	-18.3504	0	-2.6759e-05
60.3082	0.00922443	-18.1218	0	-4.58467e-05
60.312	0.00933897	-17.9047	0	0.00014503
60.316	0.00926261	-17.68	0	6.86792e-05
60.32	0.00931988	-17.4552	0	-2.6759e-05
60.3242	0.00933897	-17.2394	0	3.05039e-05
60.3284	0.00937715	-17.0115	0	4.95916e-05
60.333	0.00924352	-16.7785	0	-4.58467e-05
60.3376	0.00924352	-16.5614	0	-4.58467e-05
60.3424	0.00935806	-16.3239	0	-4.58467e-05
60.3472	0.00924352	-16.0967	0	-0.000122197
60.352	0.00931988	-15.877	0	-0.00010311
60.3572	0.00924352	-15.6491	0	-4.58467e-05
60.3622	0.00918625	-15.4326	0	-7.67139e-06
60.3674	0.00926261	-15.2073	0	1.14163e-05
60.3728	0.00926261	-14.9845	0	-0.00010311
60.3784	0.0092817	-14.7648	0	-6.49344e-05
60.384	0.0092817	-14.5464	0	1.14163e-05
60.3896	0.00930079	-14.3294	0	-2.6759e-05
60.3954	0.00937715	-14.1174	0	6.86792e-05
60.4014	0.00935806	-13.899	0	1.14163e-05
60.4074	0.00922443	-13.6889	0	-8.4022e-05
60.4134	0.0092817	-13.4769	0	6.86792e-05
60.4198	0.00924352	-13.2668	0	6.86792e-05
60.4262	0.00930079	-13.0548	0	6.86792e-05
60.433	0.00935806	-12.8364	0	-2.6759e-05
60.4404	0.00924352	-12.6117	0	-8.4022e-05
60.448	0.00922443	-12.3921	0	-7.67139e-06
60.4554	0.00935806	-12.1769	0	8.77669e-05
60.4628	0.00924352	-11.9655	0	1.14163e-05
60.4708	0.00935806	-11.7522	0	-7.67139e-06
60.4792	0.00922443	-11.5301	0	0.000106855
60.4872	0.00939624	-11.3219	0	1.14163e-05
60.4958	0.00937715	-11.1137	0	3.05039e-05
60.5046	0.00918625	-10.9004	0	-4.58467e-05
60.5142	0.00926261	-10.6872	0	4.95916e-05
60.5238	0.00926261	-10.4745	0	-0.00010311
60.5338	0.00930079	-10.2632	0	3.05039e-05
60.5442	0.00939624	-10.0499	0	-4.58467e-05
60.5552	0.00926261	-9.83852	0	1.14163e-05
60.566	0.00933897	-9.63161	0	1.14163e-05
60.5778	0.00926261	-9.4247	0	4.95916e-05
60.5904	0.00941533	-9.20761	0	-4.58467e-05
60.6034	0.00941533	-9.00134	0	3.05039e-05
60.6168	0.00937715	-8.79316	0	-4.58467e-05
60.6318	0.00939624	-8.57606	0	-4.58467e-05
60.6468	0.00930079	-8.36215	0	1.14163e-05
60.6638	0.00924352	-8.14633	0	-0.000160373
60.6806	0.00926261	-7.93752	0	-8.4022e-05
60.6996	0.0092817	-7.72042	0	-7.67139e-06
60.7192	0.0092817	-7.50715	0	3.05039e-05
60.7396	0.00916716	-7.30215	0	1.14163e-05
60.7616	0.00933897	-7.09588	0	-7.67139e-06
60.7854	0.00935806	-6.88388	0	-2.6759e-05
60.8106	0.00935806	-6.67124	0	-0.000141285
60.838	0.00935806	-6.45988	0	-4.58467e-05
60.8672	0.00931988	-6.24724	0	-0.000122197
60.899	0.00922443	-6.03524	0	3.05039e-05
60.9328	0.00922443	-5.82579	0	-0.00010311
60.9688	0.00926261	-5.61443	0	3.05039e-05
61.0078	0.00922443	-5.40561	0	4.95916e-05
61.0468	0.00931988	-5.20252	0	3.05039e-05
61.0912	0.00926261	-4.99434	0	-7.67139e-06
61.1374	0.00924352	-4.78998	0	1.14163e-05
61.1874	0.00931988	-4.58498	0	3.05039e-05
61.2406	0.00930079	-4.37298	0	8.77669e-05
61.3196	0.00930079	-4.12266	0	3.05039e-05
61.3806	0.00933897	-3.92154	0	1.14163e-05
61.4468	0.0092817	-3.71908	0	0.000125942
61.5186	0.00926261	-3.517	0	-7.67139e-06
61.5966	0.00930079	-3.31474	0	0.000125942
61.6818	0.0092817	-3.11342	0	4.95916e-05
61.776	0.0092817	-2.91186	0	-7.67139e-06
61.882	0.00931988	-2.7094	0	-7.67139e-06
62.0012	0.00926261	-2.50853	0	-6.49344e-05
62.139	0.00935806	-2.30601	0	-0.00010311
62.3012	0.00937715	-2.104	0	-6.49344e-05
62.4938	0.00930079	-1.9025	0	-4.58467e-05
62.7282	0.00933897	-1.70169	0	1.14163e-05
63.0222	0.00931988	-1.50121	0	3.05039e-05
63.4066	0.0092817	-1.3006	0	-7.67139e-06
63.9314	0.00920534	-1.09935	0	8.77669e-05
64.692	0.00930079	-0.898355	0	0.000125942
65.895	0.00926261	-0.697806	0	-4.58467e-05
68.1	0.00935806	-0.497131	0	-2.6759e-05
73.7014	0.00931988	-0.296469	0	8.77669e-05
99.8372	0.00924352	-0.116103	0	4.95916e-05
139.837	0.00922443	-0.0679596	0	1.14163e-05
179.837	0.00937715	-0.0491415	0	-6.49344e-05
219.837	0.00926261	-0.038823	0	3.05039e-05
259.837	0.00920534	-0.0309881	0	-6.49344e-05
299.837	0.00933897	-0.0256419	0	-2.6759e-05
339.837	0.00935806	-0.0215682	0	-2.6759e-05
379.837	0.00931988	-0.0182384	0	1.14163e-05
419.837	0.00937715	-0.0159032	0	4.95916e-05
459.837	0.00933897	-0.0138823	0	-6.49344e-05
499.837	0.0092817	-0.0120637	0	-7.67139e-06
539.837	0.00922443	-0.0104137	0	1.14163e-05
579.837	0.00926261	-0.0092843	0	-0.00010311
619.837	0.0092817	-0.00820384	0	-4.58467e-05
659.837	0.00930079	-0.00733528	0	0.000106855
699.837	0.00930079	-0.00673843	0	-0.000122197
739.837	0.00931988	-0.00614284	0	-8.4022e-05
779.837	0.00916716	-0.00560007	0	-7.67139e-06
819.837	0.00922443	-0.00511902	0	-2.6759e-05
859.837	0.0092817	-0.00478051	0	1.14163e-05
899.837	0.00930079	-0.00440734	0	-4.58467e-05
939.837	0.00924352	-0.00409836	0	1.14163e-05
979.837	0.00933897	-0.00382981	0	-7.67139e-06
1019.84	0.00916716	-0.00360588	0	-4.58467e-05
1059.84	0.00933897	-0.003378	0	-0.000141285
1099.84	0.00922443	-0.00318456	0	6.86792e-05
1139.84	0.00931988	-0.00299525	0	-2.6759e-05
1179.84	0.0092817	-0.00286158	0	-6.49344e-05
1219.84	0.00930079	-0.00272785	0	0.000125942
1259.84	0.00937715	-0.00261607	0	-2.6759e-05
1299.84	0.00924352	-0.0025071	0	3.05039e-05
1339.84	0.00930079	-0.00238291	0	1.14163e-05
1379.84	0.0092817	-0.00227152	0	-0.00010311
1419.84	0.00933897	-0.00217687	0	4.95916e-05
1459.84	0.0092817	-0.0020691	0	1.14163e-05
1499.84	0.00926261	-0.00202302	0	1.14163e-05
1539.84	0.00926261	-0.00194339	0	6.86792e-05
1579.84	0.00924352	-0.00184313	0	8.77669e-05
1619.84	0.0092817	-0.00183034	0	-4.58467e-05
1659.84	0.0092817	-0.00172932	0	6.86792e-05
1699.84	0.0092817	-0.00167388	0	-8.4022e-05
1739.84	0.00931988	-0.0016418	0	-2.6759e-05
1779.84	0.00930079	-0.00157872	0	-8.4022e-05
1819.84	0.00930079	-0.0015707	0	-4.58467e-05
1859.84	0.00922443	-0.00148782	0	1.14163e-05
1860.05	0.00945351	-0.00148871	0	-2.6759e-05