File: EXPERIMENTAL-DATA/Electrochemical-cycling/S-series/2024-06-19_S06_Icell_t1800_C0001_J01_04_CP_C10.txt
time/s	Ewe/V	I/mA	error	Ece/V
1860.21	0.0132209	-0.19474	0	-0.00147499
1860.21	0.00736777	-0.195993	0	-0.00131463
1860.21	0.00387749	-0.195996	0	-4.38561e-06
1860.21	0.00246476	-0.196002	0	-6.16571e-05
1860.21	0.00122384	-0.196002	0	0.000110157
1860.21	0.000135653	-0.195995	0	0.000167429
1860.21	-0.00177345	-0.196001	0	7.19764e-05
1860.21	-0.003358	-0.19601	0	-4.38561e-06
1860.21	-0.00513347	-0.196001	0	5.28859e-05
1860.21	-0.00648893	-0.195996	0	0.000129248
1860.21	-0.00799712	-0.196	0	7.19764e-05
1860.21	-0.00946713	-0.195998	0	7.19764e-05
1860.21	-0.0108035	-0.196004	0	9.10669e-05
1860.21	-0.0121208	-0.195999	0	5.28859e-05
1860.21	-0.0133999	-0.195998	0	0.000129248
1860.21	-0.0147172	-0.196	0	9.10669e-05
1860.21	-0.0157863	-0.196006	0	0.000186519
1860.21	-0.0171417	-0.196004	0	7.19764e-05
1860.21	-0.0182681	-0.195999	0	-4.38561e-06
1860.21	-0.0193181	-0.196	0	-4.25666e-05
1860.21	-0.0204636	-0.196001	0	0.000110157
1860.21	-0.0215708	-0.195998	0	7.19764e-05
1860.21	-0.0230981	-0.196001	0	5.28859e-05
1860.21	-0.0242054	-0.196005	0	5.28859e-05
1860.21	-0.0252363	-0.196007	0	3.37954e-05
1860.22	-0.026649	-0.196004	0	7.19764e-05
1860.22	-0.0276609	-0.196004	0	3.37954e-05
1860.22	-0.0290736	-0.196001	0	-2.34761e-05
1860.22	-0.03062	-0.195998	0	5.28859e-05
1860.22	-0.0318227	-0.195998	0	0.000110157
1860.22	-0.0328536	-0.196002	0	0.000110157
1860.22	-0.0342091	-0.196001	0	0.000129248
1860.22	-0.03545	-0.196005	0	3.37954e-05
1860.22	-0.0369009	-0.196	0	9.10669e-05
1860.22	-0.0380655	-0.196005	0	-4.38561e-06
1860.22	-0.0393637	-0.196004	0	7.19764e-05
1860.22	-0.0406237	-0.195994	0	9.10669e-05
1860.22	-0.0418264	-0.196001	0	1.47049e-05
1860.22	-0.0429528	-0.196005	0	5.28859e-05
1860.22	-0.04427	-0.196004	0	5.28859e-05
1860.22	-0.0454728	-0.195999	0	9.10669e-05
1860.22	-0.0465801	-0.196002	0	3.37954e-05
1860.22	-0.047821	-0.195998	0	0.000148338
1860.23	-0.0491192	-0.196007	0	7.19764e-05
1860.23	-0.0504174	-0.196005	0	-4.38561e-06
1860.23	-0.0514674	-0.196002	0	3.37954e-05
1860.23	-0.0526128	-0.196001	0	0.000110157
1860.23	-0.0536437	-0.196002	0	-2.34761e-05
1860.23	-0.0546746	-0.196004	0	-2.34761e-05
1860.23	-0.0556865	-0.196005	0	9.10669e-05
1860.23	-0.0568128	-0.196005	0	3.37954e-05
1860.23	-0.057901	-0.195999	0	5.28859e-05
1860.23	-0.059161	-0.196	0	-4.38561e-06
1860.23	-0.060612	-0.195999	0	1.47049e-05
1860.23	-0.061891	-0.195997	0	1.47049e-05
1860.23	-0.0629411	-0.195998	0	3.37954e-05
1860.23	-0.0641438	-0.196009	0	0.000110157
1860.23	-0.065232	-0.196002	0	5.28859e-05
1860.24	-0.0665683	-0.196004	0	0.000262881
1860.24	-0.0676756	-0.196012	0	-4.25666e-05
1860.24	-0.0687638	-0.196002	0	7.19764e-05
1860.24	-0.0698902	-0.196002	0	3.37954e-05
1860.24	-0.0711693	-0.196001	0	7.19764e-05
1860.24	-0.0724293	-0.196002	0	1.47049e-05
1860.24	-0.0735175	-0.196	0	1.47049e-05
1860.24	-0.0747775	-0.196005	0	0.000129248
1860.24	-0.0759802	-0.196011	0	0.000110157
1860.24	-0.0770684	-0.196001	0	7.19764e-05
1860.24	-0.0783284	-0.195995	0	5.28859e-05
1860.24	-0.0793593	-0.195999	0	5.28859e-05
1860.25	-0.0806193	-0.196004	0	-4.38561e-06
1860.25	-0.0819366	-0.195994	0	3.37954e-05
1860.25	-0.0830248	-0.196003	0	0.000129248
1860.25	-0.0840748	-0.195996	0	7.19764e-05
1860.25	-0.0852394	-0.196	0	7.19764e-05
1860.25	-0.0865757	-0.196002	0	-4.38561e-06
1860.25	-0.0875876	-0.196002	0	-2.34761e-05
1860.25	-0.0888476	-0.195999	0	3.37954e-05
1860.25	-0.0902221	-0.195996	0	0.000129248
1860.25	-0.0913676	-0.196002	0	-4.25666e-05
1860.25	-0.0924176	-0.195999	0	-4.38561e-06
1860.26	-0.0937158	-0.196001	0	-4.25666e-05
1860.26	-0.095033	-0.196004	0	-4.25666e-05
1860.26	-0.0961021	-0.196001	0	9.10669e-05
1860.26	-0.097534	-0.196001	0	-8.07476e-05
1860.26	-0.0985649	-0.195999	0	-2.34761e-05
1860.26	-0.0995958	-0.196007	0	-2.34761e-05
1860.26	-0.100646	-0.196004	0	-6.16571e-05
1860.26	-0.101849	-0.196007	0	0.000148338
1860.26	-0.103109	-0.196003	0	-2.34761e-05
1860.26	-0.104197	-0.196	0	0.000129248
1860.27	-0.105514	-0.195999	0	-4.38561e-06
1860.27	-0.106526	-0.196009	0	0.000186519
1860.27	-0.107729	-0.196002	0	1.47049e-05
1860.27	-0.108836	-0.196007	0	0.000148338
1860.27	-0.110039	-0.196003	0	-0.000118929
1860.27	-0.111089	-0.196006	0	0.000110157
1860.27	-0.112349	-0.195998	0	5.28859e-05
1860.27	-0.11336	-0.195998	0	-2.34761e-05
1860.27	-0.114391	-0.196004	0	1.47049e-05
1860.27	-0.11548	-0.196002	0	-6.16571e-05
1860.28	-0.116587	-0.195997	0	3.37954e-05
1860.28	-0.117713	-0.195995	0	0.000186519
1860.28	-0.118859	-0.196001	0	9.10669e-05
1860.28	-0.120004	-0.195999	0	1.47049e-05
1860.28	-0.121188	-0.196001	0	5.28859e-05
1860.28	-0.122429	-0.196004	0	3.37954e-05
1860.28	-0.123498	-0.196002	0	5.28859e-05
1860.28	-0.124586	-0.196004	0	1.47049e-05
1860.29	-0.125712	-0.196003	0	7.19764e-05
1860.29	-0.12682	-0.196004	0	-4.38561e-06
1860.29	-0.127908	-0.196005	0	0.000186519
1860.29	-0.129015	-0.196	0	-6.16571e-05
1860.29	-0.130027	-0.196	0	-4.38561e-06
1860.29	-0.131172	-0.195995	0	7.19764e-05
1860.29	-0.132184	-0.196005	0	-2.34761e-05
1860.29	-0.133196	-0.196002	0	-2.34761e-05
1860.3	-0.134265	-0.195997	0	7.19764e-05
1860.3	-0.135582	-0.196002	0	3.37954e-05
1860.3	-0.136594	-0.196004	0	-2.34761e-05
1860.3	-0.137721	-0.196002	0	0.000129248
1860.3	-0.138751	-0.196005	0	0.000110157
1860.3	-0.139763	-0.196002	0	-4.38561e-06
1860.3	-0.140775	-0.195995	0	3.37954e-05
1860.31	-0.14194	-0.196002	0	0.000167429
1860.31	-0.142951	-0.196004	0	-2.34761e-05
1860.31	-0.14404	-0.195998	0	9.10669e-05
1860.31	-0.145128	-0.196003	0	-9.98381e-05
1860.31	-0.14614	-0.196004	0	1.47049e-05
1860.31	-0.147209	-0.196004	0	1.47049e-05
1860.31	-0.148221	-0.196006	0	3.37954e-05
1860.32	-0.149328	-0.196001	0	7.19764e-05
1860.32	-0.150397	-0.196	0	1.47049e-05
1860.32	-0.151581	-0.196	0	1.47049e-05
1860.32	-0.152592	-0.196004	0	9.10669e-05
1860.32	-0.153681	-0.196002	0	-4.38561e-06
1860.32	-0.154692	-0.196006	0	9.10669e-05
1860.33	-0.155742	-0.195997	0	0.000110157
1860.33	-0.156831	-0.196	0	-4.38561e-06
1860.33	-0.157976	-0.196002	0	1.47049e-05
1860.33	-0.159122	-0.196008	0	7.19764e-05
1860.33	-0.160152	-0.196008	0	0.000110157
1860.34	-0.16126	-0.196005	0	-2.34761e-05
1860.34	-0.16252	-0.196003	0	3.37954e-05
1860.34	-0.163532	-0.196002	0	1.47049e-05
1860.34	-0.164543	-0.195999	0	0.000129248
1860.34	-0.165746	-0.196	0	0.000129248
1860.35	-0.166815	-0.196	0	0.000129248
1860.35	-0.167846	-0.196	0	1.47049e-05
1860.35	-0.168934	-0.195998	0	9.10669e-05
1860.35	-0.170023	-0.196006	0	-2.34761e-05
1860.36	-0.17113	-0.196	0	0.000110157
1860.36	-0.17218	-0.195996	0	1.47049e-05
1860.36	-0.173249	-0.196001	0	-6.16571e-05
1860.37	-0.174261	-0.196012	0	9.10669e-05
1860.37	-0.175368	-0.196005	0	9.10669e-05
1860.39	-0.174337	-0.196008	0	0.000167429
1860.4	-0.173325	-0.195999	0	0.000129248
1860.4	-0.172256	-0.196005	0	1.47049e-05
1860.41	-0.171168	-0.195999	0	-2.34761e-05
1860.41	-0.17008	-0.195998	0	5.28859e-05
1860.41	-0.169068	-0.195999	0	5.28859e-05
1860.42	-0.168056	-0.196	0	-4.38561e-06
1860.42	-0.167025	-0.196006	0	1.47049e-05
1860.42	-0.166013	-0.196	0	0.000129248
1860.42	-0.164792	-0.196004	0	0.000110157
1860.43	-0.163646	-0.195997	0	0.000129248
1860.43	-0.16252	-0.196004	0	7.19764e-05
1860.43	-0.161508	-0.196007	0	9.10669e-05
1860.44	-0.160496	-0.196001	0	7.19764e-05
1860.44	-0.159446	-0.196	0	1.47049e-05
1860.44	-0.158415	-0.196	0	7.19764e-05
1860.44	-0.157327	-0.196006	0	0.000110157
1860.45	-0.156315	-0.196008	0	3.37954e-05
1860.45	-0.155303	-0.196005	0	-2.34761e-05
1860.45	-0.154253	-0.196007	0	9.10669e-05
1860.45	-0.153203	-0.195999	0	5.28859e-05
1860.46	-0.152172	-0.196004	0	-9.98381e-05
1860.46	-0.151065	-0.196002	0	5.28859e-05
1860.46	-0.150015	-0.195994	0	0.000148338
1860.47	-0.148984	-0.196002	0	3.37954e-05
1860.47	-0.147934	-0.196004	0	0.000129248
1860.47	-0.146789	-0.196002	0	7.19764e-05
1860.48	-0.145739	-0.195999	0	7.19764e-05
1860.48	-0.144689	-0.195998	0	5.28859e-05
1860.48	-0.143677	-0.196004	0	9.10669e-05
1860.49	-0.142608	-0.196	0	5.28859e-05
1860.49	-0.141539	-0.196002	0	5.28859e-05
1860.5	-0.140412	-0.196	0	0.000110157
1860.5	-0.139381	-0.196002	0	-6.16571e-05
1860.51	-0.138331	-0.196002	0	0.000167429
1860.51	-0.137301	-0.196007	0	5.28859e-05
1860.51	-0.136212	-0.196	0	-4.38561e-06
1860.52	-0.135029	-0.196	0	9.10669e-05
1860.53	-0.133998	-0.196001	0	-4.25666e-05
1860.53	-0.132986	-0.195998	0	0.000243791
1860.54	-0.131898	-0.195998	0	3.37954e-05
1860.54	-0.130771	-0.196004	0	0.000129248
1860.55	-0.129569	-0.195995	0	-6.16571e-05
1860.56	-0.128481	-0.195998	0	0.000110157
1860.57	-0.127469	-0.196005	0	5.28859e-05
1860.58	-0.126438	-0.196002	0	-6.16571e-05
1860.59	-0.125407	-0.195997	0	0.000148338
1860.59	-0.124395	-0.196007	0	7.19764e-05
1860.61	-0.123383	-0.196002	0	3.37954e-05
1860.62	-0.122333	-0.196001	0	7.19764e-05
1860.63	-0.121302	-0.195995	0	5.28859e-05
1860.64	-0.120252	-0.196001	0	0.000110157
1860.66	-0.119221	-0.196002	0	3.37954e-05
1860.68	-0.11821	-0.196008	0	1.47049e-05
1860.7	-0.117179	-0.196002	0	3.37954e-05
1860.72	-0.116167	-0.196004	0	-4.38561e-06
1860.74	-0.115117	-0.195997	0	0.000186519
1860.78	-0.114086	-0.195997	0	-4.38561e-06
1860.81	-0.113074	-0.195998	0	3.37954e-05
1860.85	-0.112062	-0.196005	0	-6.16571e-05
1860.91	-0.11105	-0.196002	0	7.19764e-05
1860.99	-0.11002	-0.196	0	0.000110157
1861.08	-0.108989	-0.196003	0	0.00020561
1861.23	-0.107977	-0.196004	0	3.37954e-05
1861.46	-0.106965	-0.195998	0	-8.07476e-05
1861.95	-0.105953	-0.196004	0	9.10669e-05
1863.81	-0.105629	-0.196002	0	5.28859e-05