File: EXPERIMENTAL-DATA/Electrochemical-cycling/S-series/2024-07-04_S26_Icell_t1800_C0010_J01_deltaX-109,8mm_12mmLi_04_CP_C02.txt
time/s	Ewe/V	I/mA	error	Ece/V
1860.21	-0.0270445	-1.12271	0	-0.000421124
1860.21	-0.0450057	-1.13069	0	5.9917e-05
1860.21	-0.0510819	-1.13077	0	0.000153525
1860.21	-0.0539833	-1.13078	0	7.71812e-05
1860.21	-0.0557585	-1.13079	0	9.62671e-05
1860.21	-0.057152	-1.13083	0	3.90095e-05
1860.21	-0.05845	-1.13083	0	0.000115353
1860.21	-0.0603206	-1.13077	0	1.99236e-05
1860.21	-0.0619813	-1.13081	0	0.000172611
1860.21	-0.0635084	-1.13077	0	1.99236e-05
1860.21	-0.0648827	-1.1308	0	0.000248954
1860.21	-0.0662953	-1.13084	0	7.71812e-05
1860.21	-0.0674024	-1.13076	0	8.37723e-07
1860.21	-0.0688531	-1.13075	0	-7.55058e-05
1860.21	-0.0698839	-1.13081	0	-1.82481e-05
1860.21	-0.0711246	-1.13079	0	0.000172611
1860.21	-0.0724417	-1.13074	0	0.000210782
1860.21	-0.0734534	-1.13081	0	0.000191696
1860.21	-0.0745605	-1.13074	0	0.000115353
1860.21	-0.0756485	-1.13084	0	9.62671e-05
1860.21	-0.0766984	-1.13086	0	1.99236e-05
1860.21	-0.0777673	-1.13084	0	0.000134439
1860.21	-0.0792944	-1.13081	0	0.000153525
1860.21	-0.0804206	-1.13082	0	0.000134439
1860.21	-0.0814323	-1.13081	0	0.000210782
1860.21	-0.0828067	-1.13086	0	3.90095e-05
1860.22	-0.0838565	-1.13075	0	5.80953e-05
1860.22	-0.085269	-1.13079	0	0.000248954
1860.22	-0.0867198	-1.13087	0	5.80953e-05
1860.22	-0.0881896	-1.13076	0	0.000134439
1860.22	-0.0892203	-1.13076	0	8.37723e-07
1860.22	-0.0905183	-1.13083	0	0.000229868
1860.22	-0.0917591	-1.13084	0	7.71812e-05
1860.22	-0.0929616	-1.13082	0	0.000115353
1860.22	-0.0944505	-1.13081	0	7.71812e-05
1860.22	-0.0957676	-1.13081	0	1.99236e-05
1860.22	-0.0969511	-1.13083	0	8.37723e-07
1860.22	-0.0982109	-1.13081	0	9.62671e-05
1860.22	-0.0994326	-1.13078	0	3.90095e-05
1860.22	-0.100673	-1.13078	0	-1.82481e-05
1860.22	-0.102067	-1.13078	0	9.62671e-05
1860.22	-0.103269	-1.13084	0	3.90095e-05
1860.22	-0.1043	-1.13084	0	0.000134439
1860.23	-0.105484	-1.13083	0	0.000134439
1860.23	-0.106724	-1.1308	0	0.000191696
1860.23	-0.107831	-1.13079	0	9.62671e-05
1860.23	-0.108977	-1.13077	0	3.90095e-05
1860.23	-0.11016	-1.13078	0	3.90095e-05
1860.23	-0.111267	-1.1308	0	1.99236e-05
1860.23	-0.112394	-1.13075	0	-5.64199e-05
1860.23	-0.113482	-1.13074	0	7.71812e-05
1860.23	-0.114551	-1.13083	0	5.80953e-05
1860.23	-0.115619	-1.13076	0	5.80953e-05
1860.23	-0.116669	-1.13084	0	0.000153525
1860.23	-0.117738	-1.13086	0	0.000210782
1860.23	-0.118884	-1.13078	0	0.000191696
1860.23	-0.119991	-1.13076	0	8.37723e-07
1860.23	-0.121193	-1.13081	0	7.71812e-05
1860.23	-0.122281	-1.13077	0	0.000115353
1860.24	-0.12335	-1.13074	0	9.62671e-05
1860.24	-0.124629	-1.13085	0	0.000210782
1860.24	-0.125717	-1.13087	0	3.90095e-05
1860.24	-0.126882	-1.13083	0	3.90095e-05
1860.24	-0.128275	-1.13084	0	9.62671e-05
1860.24	-0.129611	-1.1308	0	0.000248954
1860.24	-0.130756	-1.13086	0	-7.55058e-05
1860.24	-0.131806	-1.13083	0	7.71812e-05
1860.24	-0.133028	-1.13083	0	7.71812e-05
1860.24	-0.134269	-1.13086	0	-3.7334e-05
1860.24	-0.135509	-1.13077	0	0.000115353
1860.24	-0.136693	-1.13084	0	0.000210782
1860.24	-0.137838	-1.13083	0	0.000134439
1860.25	-0.139003	-1.13088	0	0.000153525
1860.25	-0.140167	-1.13084	0	0.000248954
1860.25	-0.141198	-1.1308	0	9.62671e-05
1860.25	-0.142209	-1.13083	0	-1.82481e-05
1860.25	-0.143317	-1.13075	0	0.000153525
1860.25	-0.144481	-1.13081	0	-3.7334e-05
1860.25	-0.145664	-1.13078	0	7.71812e-05
1860.25	-0.147077	-1.13088	0	0.000134439
1860.25	-0.148241	-1.13079	0	0.000115353
1860.25	-0.149272	-1.13082	0	3.90095e-05
1860.25	-0.150475	-1.13077	0	0.000134439
1860.25	-0.151544	-1.13079	0	5.80953e-05
1860.26	-0.152765	-1.13083	0	-3.7334e-05
1860.26	-0.153815	-1.13084	0	1.99236e-05
1860.26	-0.154999	-1.13077	0	5.80953e-05
1860.26	-0.15601	-1.13083	0	8.37723e-07
1860.26	-0.157232	-1.13081	0	3.90095e-05
1860.26	-0.158244	-1.13079	0	0.000153525
1860.26	-0.159427	-1.13084	0	1.99236e-05
1860.26	-0.160611	-1.13076	0	9.62671e-05
1860.26	-0.161622	-1.13082	0	5.80953e-05
1860.26	-0.162787	-1.13081	0	0.000115353
1860.26	-0.163875	-1.13083	0	-7.55058e-05
1860.27	-0.165058	-1.13083	0	1.99236e-05
1860.27	-0.166127	-1.13077	0	9.62671e-05
1860.27	-0.167196	-1.13079	0	0.000134439
1860.27	-0.168322	-1.13086	0	0.000153525
1860.27	-0.169506	-1.13085	0	7.71812e-05
1860.27	-0.170746	-1.13081	0	0.000172611
1860.27	-0.172006	-1.13076	0	0.000172611
1860.27	-0.173171	-1.13083	0	8.37723e-07
1860.27	-0.174297	-1.13078	0	9.62671e-05
1860.28	-0.175404	-1.13083	0	5.80953e-05
1860.28	-0.176549	-1.13075	0	8.37723e-07
1860.28	-0.177733	-1.13077	0	5.80953e-05
1860.28	-0.17884	-1.13074	0	3.90095e-05
1860.28	-0.180138	-1.13075	0	5.80953e-05
1860.28	-0.181321	-1.13076	0	1.99236e-05
1860.28	-0.18239	-1.13082	0	0.000153525
1860.28	-0.183421	-1.13081	0	7.71812e-05
1860.28	-0.184452	-1.13083	0	9.62671e-05
1860.29	-0.185559	-1.13082	0	1.99236e-05
1860.29	-0.186647	-1.13083	0	3.90095e-05
1860.29	-0.187659	-1.13079	0	0.000115353
1860.29	-0.18869	-1.13079	0	5.80953e-05
1860.29	-0.189911	-1.13078	0	9.62671e-05
1860.29	-0.190942	-1.13083	0	0.000153525
1860.29	-0.191992	-1.13079	0	0.000134439
1860.3	-0.193061	-1.13076	0	7.71812e-05
1860.3	-0.194206	-1.13079	0	-1.82481e-05
1860.3	-0.195332	-1.13084	0	5.80953e-05
1860.3	-0.196439	-1.13077	0	0.000115353
1860.3	-0.19747	-1.13081	0	5.80953e-05
1860.3	-0.19852	-1.13083	0	7.71812e-05
1860.31	-0.199646	-1.13084	0	9.62671e-05
1860.31	-0.200772	-1.13081	0	1.99236e-05
1860.31	-0.20186	-1.13077	0	9.62671e-05
1860.31	-0.202891	-1.13078	0	7.71812e-05
1860.31	-0.203903	-1.13083	0	0.000153525
1860.32	-0.204934	-1.13088	0	7.71812e-05
1860.32	-0.205964	-1.13077	0	7.71812e-05
1860.32	-0.207033	-1.13076	0	3.90095e-05
1860.33	-0.208064	-1.13084	0	7.71812e-05
1860.35	-0.207052	-1.13081	0	1.99236e-05
1860.35	-0.205984	-1.13077	0	7.71812e-05
1860.35	-0.204895	-1.1308	0	0.000115353
1860.36	-0.203769	-1.13077	0	0.000134439
1860.36	-0.2027	-1.1308	0	0.000153525
1860.36	-0.201593	-1.1308	0	0.000153525
1860.37	-0.20041	-1.1308	0	5.80953e-05
1860.37	-0.199322	-1.13081	0	3.90095e-05
1860.37	-0.198234	-1.13079	0	0.000115353
1860.37	-0.197222	-1.1308	0	-1.82481e-05
1860.38	-0.196153	-1.13087	0	0.000172611
1860.38	-0.195122	-1.13079	0	0.000210782
1860.38	-0.194072	-1.13081	0	-9.45916e-05
1860.38	-0.192984	-1.13077	0	3.90095e-05
1860.39	-0.191954	-1.13084	0	-1.82481e-05
1860.39	-0.190923	-1.13074	0	5.80953e-05
1860.39	-0.189911	-1.13077	0	0.000248954
1860.4	-0.188842	-1.13086	0	1.99236e-05
1860.4	-0.187811	-1.13083	0	0.000172611
1860.4	-0.186743	-1.13083	0	0.000115353
1860.41	-0.18554	-1.13084	0	0.000134439
1860.41	-0.184528	-1.13084	0	9.62671e-05
1860.42	-0.183517	-1.13081	0	7.71812e-05
1860.42	-0.182505	-1.13082	0	1.99236e-05
1860.43	-0.181436	-1.1308	0	-1.82481e-05
1860.43	-0.18031	-1.13083	0	0.00026804
1860.44	-0.179298	-1.13074	0	3.90095e-05
1860.44	-0.178229	-1.13083	0	8.37723e-07
1860.45	-0.177217	-1.13079	0	1.99236e-05
1860.46	-0.176206	-1.13081	0	8.37723e-07
1860.47	-0.175194	-1.13081	0	-1.82481e-05
1860.47	-0.174163	-1.13079	0	-1.82481e-05
1860.48	-0.173094	-1.13081	0	0.000210782
1860.49	-0.172064	-1.13079	0	0.000115353
1860.51	-0.171014	-1.13084	0	7.71812e-05
1860.52	-0.170002	-1.13084	0	8.37723e-07
1860.53	-0.168971	-1.13084	0	5.80953e-05
1860.55	-0.16796	-1.13081	0	9.62671e-05
1860.57	-0.166929	-1.13084	0	-1.82481e-05
1860.59	-0.165803	-1.13079	0	0.000115353
1860.62	-0.164753	-1.13085	0	1.99236e-05
1860.65	-0.163722	-1.13083	0	9.62671e-05
1860.68	-0.162691	-1.13077	0	9.62671e-05
1860.72	-0.161641	-1.13085	0	7.71812e-05
1860.77	-0.16063	-1.13084	0	0.000134439
1860.83	-0.159618	-1.13075	0	7.71812e-05
1860.9	-0.158606	-1.13083	0	7.71812e-05
1860.98	-0.157595	-1.13081	0	3.90095e-05
1861.07	-0.156564	-1.13085	0	0.00026804
1861.19	-0.155552	-1.13082	0	0.000191696
1861.32	-0.154541	-1.13074	0	0.000153525
1861.49	-0.153472	-1.13083	0	1.99236e-05
1861.69	-0.152422	-1.13084	0	0.000115353
1861.91	-0.15141	-1.13081	0	9.62671e-05
1862.17	-0.150398	-1.13084	0	9.62671e-05
1862.48	-0.149348	-1.13083	0	9.62671e-05
1862.88	-0.148337	-1.13079	0	5.80953e-05
1863.28	-0.147325	-1.13083	0	0.000134439
1863.78	-0.146294	-1.13081	0	0.000134439
1864.37	-0.145283	-1.13077	0	5.80953e-05
1864.95	-0.144271	-1.13079	0	1.99236e-05
1865.59	-0.143259	-1.13079	0	0.000134439
1866.31	-0.142229	-1.13079	0	1.99236e-05
1867.07	-0.141217	-1.13082	0	5.80953e-05
1867.88	-0.140205	-1.13084	0	0.000153525
1868.76	-0.139174	-1.13091	0	-1.82481e-05
1869.65	-0.138144	-1.13087	0	8.37723e-07
1870.63	-0.137132	-1.13083	0	8.37723e-07
1871.71	-0.13612	-1.13077	0	0.000172611
1872.8	-0.135109	-1.13086	0	1.99236e-05
1874.09	-0.134059	-1.13083	0	0.000115353
1875.43	-0.133047	-1.13083	0	0.000172611
1877	-0.132016	-1.1308	0	7.71812e-05
1878.75	-0.130966	-1.13083	0	3.90095e-05
1880.73	-0.129936	-1.13079	0	5.80953e-05
1883.03	-0.128848	-1.13079	0	9.62671e-05
1885.8	-0.127836	-1.13087	0	0.000115353
1889.12	-0.126805	-1.13085	0	8.37723e-07
1893.17	-0.125794	-1.13082	0	8.37723e-07
1896.21	-0.125297	-1.13086	0	0.000115353