File: EXPERIMENTAL-DATA/Electrochemical-cycling/S-series/2024-06-25_S15_Icell_t1800_C0030_J01_deltaX-110,2mm_04_CP_C04.txt
time/s	Ewe/V	I/mA	error
1860.21	-0.00830263	-0.194721	0
1860.21	-0.0155991	-0.195979	0
1860.21	-0.0183495	-0.195979	0
1860.21	-0.0197621	-0.195976	0
1860.21	-0.0209839	-0.195985	0
1860.21	-0.0220911	-0.195983	0
1860.21	-0.0238283	-0.195975	0
1860.21	-0.0255846	-0.195981	0
1860.21	-0.0271309	-0.195979	0
1860.21	-0.0286009	-0.195979	0
1860.21	-0.029899	-0.195984	0
1860.21	-0.0311971	-0.195982	0
1860.21	-0.0325907	-0.195976	0
1860.21	-0.0337934	-0.195984	0
1860.21	-0.0349197	-0.195978	0
1860.21	-0.0361987	-0.195975	0
1860.21	-0.0375541	-0.195981	0
1860.21	-0.0386805	-0.195977	0
1860.21	-0.0399213	-0.195979	0
1860.21	-0.0409904	-0.195977	0
1860.21	-0.0420594	-0.195978	0
1860.21	-0.0431475	-0.195984	0
1860.21	-0.0444075	-0.195987	0
1860.21	-0.0454384	-0.195974	0
1860.21	-0.0464692	-0.195978	0
1860.21	-0.0480919	-0.195984	0
1860.22	-0.0495809	-0.19598	0
1860.22	-0.0511654	-0.195981	0
1860.22	-0.0522154	-0.195982	0
1860.22	-0.0535326	-0.195979	0
1860.22	-0.0550025	-0.195986	0
1860.22	-0.0560334	-0.195977	0
1860.22	-0.0574079	-0.195979	0
1860.22	-0.0588587	-0.19598	0
1860.22	-0.0602905	-0.195977	0
1860.22	-0.0616268	-0.195979	0
1860.22	-0.0629631	-0.19598	0
1860.22	-0.0644712	-0.195981	0
1860.22	-0.065693	-0.195979	0
1860.22	-0.0668575	-0.195977	0
1860.22	-0.0681938	-0.195975	0
1860.22	-0.0695492	-0.195978	0
1860.22	-0.0708664	-0.195981	0
1860.23	-0.0720118	-0.195977	0
1860.23	-0.0732909	-0.195981	0
1860.23	-0.0745699	-0.195982	0
1860.23	-0.075868	-0.195984	0
1860.23	-0.0770707	-0.195982	0
1860.23	-0.0782734	-0.195978	0
1860.23	-0.0795715	-0.195978	0
1860.23	-0.0805833	-0.195984	0
1860.23	-0.0816523	-0.195979	0
1860.23	-0.0829314	-0.195976	0
1860.23	-0.0840959	-0.19598	0
1860.23	-0.0851267	-0.19598	0
1860.23	-0.0864058	-0.195988	0
1860.23	-0.0876848	-0.195977	0
1860.23	-0.0888684	-0.195982	0
1860.23	-0.090262	-0.195982	0
1860.24	-0.0916937	-0.195981	0
1860.24	-0.0927437	-0.195982	0
1860.24	-0.0941945	-0.19598	0
1860.24	-0.0952827	-0.195983	0
1860.24	-0.0963326	-0.195981	0
1860.24	-0.0976308	-0.195986	0
1860.24	-0.0988907	-0.195979	0
1860.24	-0.0999216	-0.195978	0
1860.24	-0.101124	-0.195979	0
1860.24	-0.102155	-0.195975	0
1860.24	-0.103434	-0.195985	0
1860.24	-0.104751	-0.19598	0
1860.24	-0.106011	-0.195976	0
1860.24	-0.107214	-0.195979	0
1860.25	-0.108417	-0.195984	0
1860.25	-0.109619	-0.195984	0
1860.25	-0.110765	-0.195981	0
1860.25	-0.111948	-0.195978	0
1860.25	-0.113132	-0.195978	0
1860.25	-0.114277	-0.195977	0
1860.25	-0.115518	-0.195978	0
1860.25	-0.116587	-0.195979	0
1860.25	-0.117675	-0.195986	0
1860.25	-0.118744	-0.195985	0
1860.25	-0.119928	-0.195984	0
1860.25	-0.121283	-0.195989	0
1860.26	-0.122448	-0.195977	0
1860.26	-0.123651	-0.195984	0
1860.26	-0.124701	-0.195979	0
1860.26	-0.125884	-0.195981	0
1860.26	-0.126953	-0.195982	0
1860.26	-0.128156	-0.195977	0
1860.26	-0.129244	-0.195984	0
1860.26	-0.130389	-0.195981	0
1860.26	-0.131516	-0.195986	0
1860.26	-0.132718	-0.195978	0
1860.26	-0.133864	-0.195981	0
1860.27	-0.134952	-0.195981	0
1860.27	-0.136097	-0.195984	0
1860.27	-0.137357	-0.195979	0
1860.27	-0.138579	-0.195983	0
1860.27	-0.139648	-0.195981	0
1860.27	-0.140774	-0.195981	0
1860.27	-0.141958	-0.195981	0
1860.27	-0.143046	-0.19598	0
1860.27	-0.144115	-0.195981	0
1860.28	-0.145318	-0.195981	0
1860.28	-0.146463	-0.195983	0
1860.28	-0.14759	-0.195986	0
1860.28	-0.148659	-0.195982	0
1860.28	-0.149785	-0.195982	0
1860.28	-0.150816	-0.195981	0
1860.28	-0.151828	-0.19598	0
1860.28	-0.152897	-0.195985	0
1860.28	-0.153985	-0.195977	0
1860.29	-0.155264	-0.195986	0
1860.29	-0.156333	-0.195987	0
1860.29	-0.157421	-0.19598	0
1860.29	-0.158452	-0.195982	0
1860.29	-0.159502	-0.195982	0
1860.29	-0.160571	-0.195985	0
1860.29	-0.161583	-0.195983	0
1860.3	-0.162671	-0.195981	0
1860.3	-0.163683	-0.195983	0
1860.3	-0.16479	-0.195979	0
1860.3	-0.166031	-0.195985	0
1860.3	-0.167195	-0.195978	0
1860.3	-0.168283	-0.195977	0
1860.3	-0.169295	-0.195986	0
1860.31	-0.170307	-0.195986	0
1860.31	-0.171338	-0.195979	0
1860.31	-0.172407	-0.195981	0
1860.31	-0.173438	-0.195984	0
1860.31	-0.174488	-0.195979	0
1860.31	-0.175576	-0.19598	0
1860.32	-0.176702	-0.195987	0
1860.32	-0.177847	-0.195979	0
1860.32	-0.179184	-0.195981	0
1860.32	-0.180234	-0.195981	0
1860.33	-0.181303	-0.195981	0
1860.33	-0.182525	-0.195985	0
1860.33	-0.183575	-0.195986	0
1860.33	-0.184586	-0.195983	0
1860.33	-0.185713	-0.19598	0
1860.34	-0.186763	-0.195989	0
1860.34	-0.187774	-0.195982	0
1860.35	-0.188786	-0.195988	0
1860.37	-0.187717	-0.195979	0
1860.37	-0.186667	-0.195982	0
1860.37	-0.185522	-0.195981	0
1860.38	-0.184376	-0.195984	0
1860.38	-0.183365	-0.195985	0
1860.38	-0.182315	-0.195977	0
1860.38	-0.181284	-0.195981	0
1860.39	-0.180272	-0.195985	0
1860.39	-0.179241	-0.19598	0
1860.39	-0.178057	-0.195979	0
1860.39	-0.177008	-0.19598	0
1860.39	-0.175919	-0.195984	0
1860.4	-0.174755	-0.195979	0
1860.4	-0.173724	-0.195985	0
1860.4	-0.172598	-0.195981	0
1860.4	-0.171586	-0.195983	0
1860.4	-0.170421	-0.195982	0
1860.4	-0.169257	-0.195982	0
1860.41	-0.168226	-0.195987	0
1860.41	-0.167176	-0.195988	0
1860.41	-0.166126	-0.195987	0
1860.41	-0.164962	-0.195984	0
1860.41	-0.16395	-0.195985	0
1860.42	-0.162881	-0.195984	0
1860.42	-0.161697	-0.19598	0
1860.42	-0.160666	-0.195984	0
1860.42	-0.159597	-0.195985	0
1860.42	-0.158566	-0.195982	0
1860.43	-0.15744	-0.195982	0
1860.43	-0.156333	-0.195982	0
1860.43	-0.155302	-0.195985	0
1860.43	-0.154214	-0.195979	0
1860.43	-0.153164	-0.195986	0
1860.44	-0.151999	-0.195984	0
1860.44	-0.150835	-0.19598	0
1860.44	-0.149785	-0.195986	0
1860.44	-0.148716	-0.195981	0
1860.45	-0.14759	-0.195978	0
1860.45	-0.146463	-0.195986	0
1860.45	-0.145413	-0.195982	0
1860.45	-0.144402	-0.195981	0
1860.45	-0.143371	-0.195986	0
1860.46	-0.142244	-0.195985	0
1860.46	-0.141194	-0.195981	0
1860.46	-0.140106	-0.195981	0
1860.47	-0.138885	-0.195979	0
1860.47	-0.137701	-0.195986	0
1860.47	-0.136517	-0.195985	0
1860.48	-0.135448	-0.195982	0
1860.48	-0.13436	-0.195984	0
1860.48	-0.133272	-0.195982	0
1860.49	-0.132184	-0.195986	0
1860.49	-0.131019	-0.195987	0
1860.49	-0.129969	-0.195986	0
1860.5	-0.128862	-0.195982	0
1860.5	-0.127736	-0.195981	0
1860.51	-0.126552	-0.195979	0
1860.51	-0.125464	-0.195983	0
1860.52	-0.124376	-0.195983	0
1860.52	-0.123345	-0.195981	0
1860.53	-0.122276	-0.195982	0
1860.53	-0.121188	-0.195982	0
1860.54	-0.120157	-0.195984	0
1860.55	-0.119145	-0.195984	0
1860.55	-0.118057	-0.195975	0
1860.56	-0.117026	-0.195982	0
1860.57	-0.115976	-0.195981	0
1860.58	-0.114926	-0.195977	0
1860.59	-0.113896	-0.195982	0
1860.6	-0.112827	-0.195984	0
1860.61	-0.111757	-0.195982	0
1860.62	-0.110708	-0.195989	0
1860.64	-0.109696	-0.195984	0
1860.65	-0.108684	-0.195982	0
1860.67	-0.107634	-0.195981	0
1860.69	-0.106622	-0.195979	0
1860.72	-0.105591	-0.19598	0
1860.75	-0.104541	-0.195981	0
1860.79	-0.103491	-0.195984	0
1860.84	-0.102461	-0.195979	0
1860.92	-0.10143	-0.195984	0
1861.03	-0.10038	-0.195986	0
1861.29	-0.099368	-0.195974	0
1862.6	-0.10038	-0.195985	0
1863.4	-0.101392	-0.195985	0
1864.42	-0.102422	-0.195981	0
1865.62	-0.103472	-0.195984	0
1866.95	-0.104484	-0.195981	0
1868.47	-0.105496	-0.195986	0
1870.31	-0.106584	-0.195981	0
1872.55	-0.107596	-0.195989	0
1875.25	-0.108665	-0.195982	0
1878.47	-0.109734	-0.195984	0
1882.61	-0.110746	-0.195983	0
1887.52	-0.111757	-0.195978	0
1894.82	-0.112769	-0.195984	0
1904.82	-0.113094	-0.195981	0
1914.82	-0.113304	-0.195981	0
1924.82	-0.113399	-0.19599	0
1934.82	-0.113246	-0.195986	0
1944.82	-0.113036	-0.195979	0
1954.82	-0.112998	-0.195989	0
1964.82	-0.112483	-0.195986	0
1968.21	-0.112311	-0.195989	0