File: EXPERIMENTAL-DATA/Electrochemical-cycling/S-series/2024-06-27_S16_Icell_t1800_C0010_J01_deltaX-110,2mm_04_CP_C03.txt
time/s	Ewe/V	I/mA	error	Ece/V
1860.21	-0.000468626	-0.194805	0	-0.000552092
1860.21	-0.00487841	-0.195993	0	-0.000231407
1860.21	-0.0073001	-0.196	0	0.000137184
1860.21	-0.00886525	-0.195996	0	3.58385e-06
1860.21	-0.0102014	-0.196003	0	6.08409e-05
1860.21	-0.0116711	-0.195998	0	2.26695e-05
1860.21	-0.0139615	-0.195994	0	4.17552e-05
1860.21	-0.0149923	-0.195998	0	2.26695e-05
1860.21	-0.0161375	-0.196	0	0.000137184
1860.21	-0.0172255	-0.195998	0	9.90123e-05
1860.21	-0.0183516	-0.196	0	-9.18446e-05
1860.21	-0.0194587	-0.195995	0	7.99266e-05
1860.21	-0.0214628	-0.195997	0	0.000118098
1860.21	-0.0233334	-0.195996	0	6.08409e-05
1860.21	-0.0251085	-0.195997	0	9.90123e-05
1860.21	-0.0261965	-0.195997	0	9.90123e-05
1860.21	-0.0279716	-0.196	0	9.90123e-05
1860.21	-0.0296322	-0.196004	0	-1.55018e-05
1860.21	-0.0314264	-0.195998	0	2.26695e-05
1860.21	-0.0329343	-0.195994	0	-9.18446e-05
1860.21	-0.0345185	-0.195998	0	9.90123e-05
1860.21	-0.0360264	-0.196	0	9.90123e-05
1860.21	-0.0377633	-0.195994	0	6.08409e-05
1860.21	-0.039214	-0.196	0	4.17552e-05
1860.21	-0.0405501	-0.195996	0	6.08409e-05
1860.21	-0.0421725	-0.195995	0	9.90123e-05
1860.21	-0.0435086	-0.196004	0	0.000118098
1860.21	-0.0448638	-0.196	0	4.17552e-05
1860.21	-0.0463526	-0.196	0	6.08409e-05
1860.22	-0.0475551	-0.196002	0	4.17552e-05
1860.22	-0.0489866	-0.196001	0	0.000156269
1860.22	-0.0504754	-0.196002	0	-5.36732e-05
1860.22	-0.0515825	-0.196001	0	7.99266e-05
1860.22	-0.0529568	-0.195994	0	-1.55018e-05
1860.22	-0.0541783	-0.195998	0	9.90123e-05
1860.22	-0.0555145	-0.195998	0	9.90123e-05
1860.22	-0.0566597	-0.195993	0	0.000137184
1860.22	-0.0579004	-0.196001	0	-3.45875e-05
1860.22	-0.0591219	-0.195996	0	7.99266e-05
1860.22	-0.0603435	-0.195999	0	4.17552e-05
1860.22	-0.0615651	-0.195998	0	2.26695e-05
1860.22	-0.0626912	-0.195997	0	-5.36732e-05
1860.22	-0.0637983	-0.196001	0	0.000156269
1860.22	-0.0649817	-0.195998	0	0.000137184
1860.22	-0.0660697	-0.195998	0	0.000156269
1860.22	-0.067673	-0.195998	0	0.000118098
1860.22	-0.0688373	-0.196003	0	4.17552e-05
1860.22	-0.069868	-0.195994	0	-3.45875e-05
1860.22	-0.0708988	-0.195992	0	9.90123e-05
1860.22	-0.0720249	-0.195994	0	6.08409e-05
1860.22	-0.0730365	-0.196003	0	3.58385e-06
1860.22	-0.0741245	-0.195994	0	0.000118098
1860.22	-0.0757469	-0.195999	0	6.08409e-05
1860.23	-0.0771785	-0.196001	0	7.99266e-05
1860.23	-0.078839	-0.195993	0	2.26695e-05
1860.23	-0.0802324	-0.196	0	0.000175355
1860.23	-0.0815303	-0.195997	0	-3.45875e-05
1860.23	-0.0825992	-0.195995	0	4.17552e-05
1860.23	-0.084088	-0.195998	0	9.90123e-05
1860.23	-0.0854814	-0.196005	0	2.26695e-05
1860.23	-0.0869702	-0.195994	0	0.000175355
1860.23	-0.08823	-0.195998	0	9.90123e-05
1860.23	-0.0896615	-0.196002	0	7.99266e-05
1860.23	-0.0909022	-0.195999	0	0.000213526
1860.23	-0.0922765	-0.19599	0	9.90123e-05
1860.23	-0.093498	-0.195996	0	7.99266e-05
1860.23	-0.0948914	-0.196002	0	3.58385e-06
1860.23	-0.0960939	-0.195994	0	7.99266e-05
1860.23	-0.0973537	-0.195997	0	2.26695e-05
1860.23	-0.0986898	-0.196003	0	0.000156269
1860.24	-0.0999113	-0.196004	0	2.26695e-05
1860.24	-0.10098	-0.195997	0	6.08409e-05
1860.24	-0.102259	-0.195995	0	7.99266e-05
1860.24	-0.1035	-0.196	0	0.000118098
1860.24	-0.104569	-0.196	0	-7.27589e-05
1860.24	-0.105771	-0.195994	0	0.000194441
1860.24	-0.107031	-0.195998	0	9.90123e-05
1860.24	-0.108367	-0.195998	0	3.58385e-06
1860.24	-0.109589	-0.195994	0	0.000194441
1860.24	-0.110734	-0.195996	0	2.26695e-05
1860.24	-0.111745	-0.196	0	4.17552e-05
1860.24	-0.112833	-0.195994	0	6.08409e-05
1860.24	-0.11394	-0.195995	0	0.000118098
1860.24	-0.115086	-0.196001	0	0.000118098
1860.24	-0.116326	-0.195995	0	7.99266e-05
1860.24	-0.117472	-0.196001	0	4.17552e-05
1860.25	-0.11875	-0.196	0	0.000213526
1860.25	-0.119762	-0.196002	0	0.000156269
1860.25	-0.12106	-0.195994	0	0.000137184
1860.25	-0.122377	-0.195996	0	0.000213526
1860.25	-0.123618	-0.195993	0	4.17552e-05
1860.25	-0.124801	-0.195996	0	6.08409e-05
1860.25	-0.12608	-0.195996	0	0.000175355
1860.25	-0.127282	-0.195998	0	0.000118098
1860.25	-0.128485	-0.196001	0	0.000213526
1860.25	-0.129611	-0.196001	0	0.000156269
1860.25	-0.130852	-0.196001	0	9.90123e-05
1860.25	-0.13194	-0.196	0	-5.36732e-05
1860.25	-0.133085	-0.196001	0	6.08409e-05
1860.26	-0.134154	-0.196003	0	7.99266e-05
1860.26	-0.135318	-0.196	0	9.90123e-05
1860.26	-0.136692	-0.196	0	0.000118098
1860.26	-0.137857	-0.195994	0	7.99266e-05
1860.26	-0.138907	-0.195998	0	-5.36732e-05
1860.26	-0.139956	-0.195996	0	0.000118098
1860.26	-0.140987	-0.196	0	2.26695e-05
1860.26	-0.142018	-0.195993	0	6.08409e-05
1860.26	-0.143239	-0.195998	0	9.90123e-05
1860.26	-0.144289	-0.195996	0	6.08409e-05
1860.26	-0.145492	-0.196	0	0.000156269
1860.27	-0.146503	-0.196	0	4.17552e-05
1860.27	-0.147706	-0.195998	0	0.000118098
1860.27	-0.148966	-0.195998	0	9.90123e-05
1860.27	-0.150111	-0.196	0	0.000156269
1860.27	-0.151294	-0.196001	0	9.90123e-05
1860.27	-0.152516	-0.196003	0	2.26695e-05
1860.27	-0.153642	-0.196001	0	9.90123e-05
1860.27	-0.154787	-0.196002	0	0.000118098
1860.27	-0.155875	-0.196	0	-3.45875e-05
1860.28	-0.156887	-0.195998	0	0.000118098
1860.28	-0.157956	-0.195994	0	0.000194441
1860.28	-0.158986	-0.196001	0	0.000118098
1860.28	-0.160112	-0.196003	0	9.90123e-05
1860.28	-0.161124	-0.195993	0	4.17552e-05
1860.28	-0.162193	-0.196	0	0.000194441
1860.28	-0.163434	-0.196	0	0.000156269
1860.29	-0.164827	-0.196003	0	2.26695e-05
1860.29	-0.165972	-0.196006	0	2.26695e-05
1860.29	-0.167137	-0.195998	0	9.90123e-05
1860.29	-0.168167	-0.195996	0	7.99266e-05
1860.29	-0.169217	-0.195998	0	-1.55018e-05
1860.31	-0.168186	-0.195993	0	0.000175355
1860.31	-0.167079	-0.195996	0	7.99266e-05
1860.31	-0.16601	-0.195999	0	7.99266e-05
1860.31	-0.164674	-0.195998	0	3.58385e-06
1860.31	-0.163338	-0.196	0	7.99266e-05
1860.31	-0.162231	-0.195999	0	0.000137184
1860.31	-0.161124	-0.195997	0	0.000118098
1860.32	-0.159845	-0.195998	0	0.000118098
1860.32	-0.158719	-0.195999	0	9.90123e-05
1860.32	-0.157631	-0.195994	0	0.000137184
1860.32	-0.156429	-0.195998	0	0.000118098
1860.32	-0.155322	-0.196002	0	7.99266e-05
1860.32	-0.154291	-0.195999	0	0.000156269
1860.32	-0.152993	-0.196002	0	9.90123e-05
1860.32	-0.151943	-0.196006	0	0.000156269
1860.32	-0.150912	-0.195999	0	4.17552e-05
1860.32	-0.149748	-0.195994	0	7.99266e-05
1860.32	-0.148641	-0.195996	0	7.99266e-05
1860.33	-0.1474	-0.196001	0	3.58385e-06
1860.33	-0.146293	-0.196004	0	3.58385e-06
1860.33	-0.145129	-0.196002	0	9.90123e-05
1860.33	-0.144041	-0.196001	0	6.08409e-05
1860.33	-0.142762	-0.195996	0	6.08409e-05
1860.33	-0.141712	-0.196003	0	0.000118098
1860.33	-0.140644	-0.195996	0	0.000175355
1860.33	-0.139613	-0.195996	0	9.90123e-05
1860.33	-0.138601	-0.195998	0	9.90123e-05
1860.33	-0.137494	-0.195993	0	6.08409e-05
1860.33	-0.136482	-0.195999	0	7.99266e-05
1860.34	-0.135395	-0.196	0	6.08409e-05
1860.34	-0.134383	-0.195994	0	9.90123e-05
1860.34	-0.133161	-0.196	0	-1.55018e-05
1860.34	-0.132092	-0.195996	0	0.000118098
1860.34	-0.130985	-0.195998	0	0.000118098
1860.34	-0.129878	-0.196001	0	0.000137184
1860.34	-0.12858	-0.195997	0	9.90123e-05
1860.34	-0.127397	-0.196	0	7.99266e-05
1860.34	-0.126061	-0.196002	0	6.08409e-05
1860.35	-0.124973	-0.195998	0	7.99266e-05
1860.35	-0.123904	-0.195991	0	0.000118098
1860.35	-0.122778	-0.195999	0	9.90123e-05
1860.35	-0.121633	-0.195999	0	0.000118098
1860.35	-0.120526	-0.195998	0	0.000175355
1860.35	-0.119361	-0.195998	0	4.17552e-05
1860.35	-0.11814	-0.196001	0	0.000156269
1860.35	-0.116937	-0.195997	0	-1.55018e-05
1860.36	-0.115887	-0.195994	0	0.000118098
1860.36	-0.114818	-0.195998	0	2.26695e-05
1860.36	-0.113788	-0.195998	0	6.08409e-05
1860.36	-0.112738	-0.196	0	9.90123e-05
1860.36	-0.111535	-0.195993	0	7.99266e-05
1860.36	-0.110505	-0.195998	0	9.90123e-05
1860.36	-0.109379	-0.196	0	6.08409e-05
1860.37	-0.108367	-0.195998	0	0.000194441
1860.37	-0.107336	-0.195997	0	-5.36732e-05
1860.37	-0.106	-0.196	0	4.17552e-05
1860.37	-0.104989	-0.195998	0	7.99266e-05
1860.37	-0.103977	-0.195998	0	9.90123e-05
1860.38	-0.102908	-0.195993	0	0.000194441
1860.38	-0.101896	-0.195998	0	4.17552e-05
1860.38	-0.100789	-0.195997	0	7.99266e-05
1860.38	-0.0997587	-0.195996	0	0.000194441
1860.39	-0.0986516	-0.195997	0	6.08409e-05
1860.39	-0.0976209	-0.195999	0	3.58385e-06
1860.39	-0.0966093	-0.195997	0	9.90123e-05
1860.4	-0.0955595	-0.195998	0	0.000118098
1860.4	-0.0945287	-0.196002	0	7.99266e-05
1860.4	-0.0934026	-0.196	0	6.08409e-05
1860.41	-0.0923719	-0.196	0	0.000118098
1860.41	-0.0913412	-0.196002	0	7.99266e-05
1860.42	-0.0902914	-0.196001	0	4.17552e-05
1860.42	-0.0891652	-0.196	0	0.000194441
1860.43	-0.0881154	-0.196003	0	-3.45875e-05
1860.44	-0.0870847	-0.196	0	4.17552e-05
1860.44	-0.086054	-0.195998	0	6.08409e-05
1860.45	-0.0850424	-0.196002	0	3.58385e-06
1860.46	-0.0840308	-0.195994	0	9.90123e-05
1860.47	-0.0830192	-0.195998	0	6.08409e-05
1860.49	-0.0820075	-0.195999	0	-3.45875e-05
1860.5	-0.0809386	-0.196001	0	7.99266e-05
1860.52	-0.079927	-0.196001	0	3.58385e-06
1860.55	-0.0789154	-0.195997	0	0.000137184
1860.58	-0.0778656	-0.196	0	0.000118098
1860.61	-0.076854	-0.196	0	0.000175355
1860.66	-0.0758424	-0.196002	0	-3.45875e-05
1860.73	-0.0748307	-0.195996	0	6.08409e-05
1860.83	-0.0738191	-0.196002	0	9.90123e-05
1860.96	-0.0727693	-0.195995	0	7.99266e-05
1861.28	-0.0717004	-0.196	0	2.26695e-05
1864.9	-0.072712	-0.196	0	7.99266e-05
1866.42	-0.0737618	-0.195999	0	3.58385e-06
1867.98	-0.0747925	-0.196003	0	0.000213526
1869.59	-0.0758042	-0.196003	0	6.08409e-05
1871.27	-0.0768158	-0.195995	0	0.000118098
1872.99	-0.0778465	-0.196001	0	6.08409e-05
1875.11	-0.0788963	-0.196005	0	0.000137184
1877.37	-0.0799079	-0.196003	0	7.99266e-05
1879.8	-0.0809386	-0.196004	0	2.26695e-05
1882.58	-0.0819503	-0.196003	0	0.000175355
1885.65	-0.0829619	-0.196003	0	6.08409e-05
1889.26	-0.0839926	-0.196001	0	4.17552e-05
1893.54	-0.0850233	-0.196005	0	3.58385e-06
1896.21	-0.0853287	-0.196	0	-1.55018e-05