File: EXPERIMENTAL-DATA/Electrochemical-cycling/S-series/2024-07-02_S25_TPcell_t1800_C0500_J01_newScript_02_CA_C02.txt
time/s	Ewe/V	I/mA	error
18.4322	0.0146015	-0.0250209	0
18.4942	0.0087215	-0.37146	0
18.5008	0.00866423	-0.36626	0
18.5074	0.00870241	-0.361079	0
18.5138	0.00866423	-0.355854	0
18.5216	0.00877877	-0.35061	0
18.5294	0.00875968	-0.345461	0
18.5362	0.00870241	-0.340388	0
18.5484	0.00881695	-0.334928	0
18.5608	0.00868332	-0.32948	0
18.5782	0.00887423	-0.324407	0
18.5884	0.00868332	-0.319271	0
18.6088	0.00881695	-0.314186	0
18.6338	0.00881695	-0.309011	0
18.6552	0.00870241	-0.303996	0
18.694	0.00874059	-0.298548	0
18.7416	0.00862605	-0.293361	0
18.8004	0.00875968	-0.288333	0
18.8746	0.00877877	-0.283063	0
19.0614	0.0087215	-0.277959	0
19.5354	0.00854968	-0.283273	0
19.8372	0.00860696	-0.288429	0
20.1482	0.00877877	-0.293444	0
20.3756	0.00858787	-0.298465	0
20.6018	0.00881695	-0.303582	0
20.8966	0.00866423	-0.309081	0
21.1816	0.00860696	-0.314084	0
21.3728	0.00862605	-0.319252	0
21.668	0.00864514	-0.324267	0
21.9158	0.00870241	-0.329384	0
22.0002	0.00866423	-0.334457	0
22.3304	0.00870241	-0.339644	0
22.5218	0.00870241	-0.34492	0
22.949	0.00866423	-0.349992	0
23.1754	0.00879786	-0.355479	0
23.6966	0.00874059	-0.360596	0
24.0948	0.00868332	-0.365732	0
24.5676	0.00864514	-0.370804	0
25.3264	0.00879786	-0.375851	0
25.483	0.00874059	-0.380867	0
26.0692	0.00870241	-0.38613	0
26.8886	0.00862605	-0.391247	0
28.2284	0.00864514	-0.396352	0
28.813	0.00856877	-0.40136	0
29.1094	0.00862605	-0.396288	0
29.1796	0.00870241	-0.401405	0
29.9178	0.00864514	-0.396237	0
31.4042	0.00868332	-0.391209	0
32.323	0.00874059	-0.386207	0
32.3596	0.00862605	-0.391228	0
32.3906	0.00868332	-0.385997	0
33.5428	0.0087215	-0.380956	0
34.7308	0.00881695	-0.375922	0
35.4812	0.00887423	-0.370544	0
35.4908	0.00874059	-0.375546	0
35.61	0.00860696	-0.370435	0
35.6656	0.00868332	-0.375501	0
35.6754	0.00860696	-0.370353	0
36.8582	0.00870241	-0.365344	0
37.5392	0.00874059	-0.360169	0
38.6582	0.00868332	-0.355141	0
39.8716	0.00870241	-0.350056	0
40.6236	0.00875968	-0.344423	0
41.5042	0.00868332	-0.339256	0
42.2716	0.00875968	-0.334132	0
42.9306	0.00870241	-0.32885	0
44.7446	0.00874059	-0.323682	0
45.6306	0.00877877	-0.318564	0
46.2406	0.00877877	-0.313129	0
46.8178	0.0087215	-0.307955	0
47.4084	0.00870241	-0.302933	0
47.4292	0.00868332	-0.30812	0
47.6338	0.00858787	-0.302558	0
47.6444	0.00870241	-0.307707	0
47.8088	0.00868332	-0.302679	0
48.0022	0.00868332	-0.297485	0
48.0128	0.00870241	-0.302634	0
48.549	0.00862605	-0.297371	0
49.2524	0.00874059	-0.302399	0
49.3172	0.0087215	-0.297326	0
50.141	0.00870241	-0.292164	0
52.4142	0.00877877	-0.287149	0
55.3378	0.00860696	-0.281949	0
58.7834	0.00866423	-0.276444	0
58.9542	0.00858787	-0.281542	0
59.0742	0.00870241	-0.276368	0
59.1056	0.00879786	-0.281396	0
61.3004	0.00866423	-0.276381	0
64.2312	0.00868332	-0.271314	0
67.915	0.00868332	-0.266045	0
69.556	0.00860696	-0.271302	0
72.6006	0.00860696	-0.266191	0
76.4002	0.00875968	-0.271213	0
80.013	0.0087215	-0.265554	0
80.8804	0.00862605	-0.270602	0
83.704	0.00868332	-0.275789	0
86.698	0.0087215	-0.28095	0
89.2284	0.00870241	-0.275948	0
89.4784	0.00870241	-0.281084	0
94.5974	0.00881695	-0.286347	0
99.3358	0.00864514	-0.291528	0
103.255	0.0087215	-0.29655	0
104.25	0.0087215	-0.30166	0
105.3	0.00870241	-0.296594	0
106.984	0.00866423	-0.291343	0
109.869	0.00887423	-0.296823	0
117.559	0.0087215	-0.291649	0
117.923	0.00870241	-0.296779	0
118.313	0.00875968	-0.291611	0
118.498	0.00870241	-0.29683	0
118.853	0.00877877	-0.291713	0
118.923	0.00860696	-0.297103	0
119.006	0.00877877	-0.29184	0
119.09	0.00874059	-0.296862	0
119.176	0.00870241	-0.291662	0
119.258	0.00883604	-0.296702	0
119.352	0.00870241	-0.291579	0
119.424	0.00864514	-0.296671	0
119.527	0.00874059	-0.291439	0
119.566	0.00858787	-0.286093	0
119.603	0.00881695	-0.291636	0
119.692	0.00879786	-0.286379	0
119.764	0.0087215	-0.291509	0
119.884	0.00874059	-0.286487	0
119.957	0.00870241	-0.291509	0
120.055	0.00866423	-0.286506	0
120.131	0.00877877	-0.291636	0
120.225	0.0087215	-0.286201	0
120.303	0.00874059	-0.29135	0
120.401	0.00866423	-0.286207	0
120.476	0.00875968	-0.291547	0
120.594	0.00875968	-0.286513	0
120.658	0.0087215	-0.291706	0
120.771	0.0087215	-0.286137	0
120.853	0.00862605	-0.29128	0
120.981	0.0087215	-0.285902	0
121.057	0.00864514	-0.291114	0
121.505	0.00860696	-0.286086	0
121.565	0.00875968	-0.291617	0
121.758	0.00868332	-0.286265	0
121.816	0.00866423	-0.291891	0
121.95	0.00870241	-0.296989	0
122.006	0.0087215	-0.291681	0
122.109	0.00868332	-0.297027	0
122.29	0.00875968	-0.291923	0
122.403	0.00862605	-0.297358	0
122.62	0.00875968	-0.292215	0
122.791	0.0085115	-0.297511	0
122.974	0.00875968	-0.292438	0
123.208	0.00874059	-0.297473	0
123.362	0.0087215	-0.292139	0
123.496	0.00877877	-0.297409	0
123.773	0.00853059	-0.292273	0
125.907	0.00879786	-0.297434	0
128.903	0.00866423	-0.296384	0