File: EXPERIMENTAL-DATA/Cycling-data-Master-thesis/I-cell/2024-04-26_JP-measurements_sample-A6-02_M-cell_Cu-Li-Cellgard2400-separator_25muL-LiFSI-in-DME_outside-glovebox_sigma-0.02_added-OCV-0.1s_Deltax110.1mm_04_CP_C02.txt
time/s	Ewe/V	I/mA	error
451.927	-0.0471593	-1.94431	0
451.928	-0.104766	-1.95962	0
451.929	-0.121029	-1.95964	0
451.93	-0.134906	-1.95963	0
451.932	-0.147333	-1.95966	0
451.933	-0.158385	-1.95969	0
451.934	-0.168998	-1.95958	0
451.935	-0.178733	-1.95964	0
451.936	-0.187705	-1.95961	0
451.938	-0.196199	-1.95962	0
451.939	-0.204254	-1.95965	0
451.94	-0.21168	-1.95966	0
451.941	-0.218838	-1.95965	0
451.942	-0.225614	-1.95963	0
451.944	-0.235883	-1.95965	0
451.946	-0.245599	-1.95966	0
451.949	-0.255125	-1.9596	0
451.951	-0.264707	-1.95968	0
451.953	-0.273468	-1.95965	0
451.956	-0.281295	-1.9597	0
451.958	-0.288567	-1.95973	0
451.961	-0.295115	-1.95962	0
451.964	-0.302616	-1.95967	0
451.967	-0.310118	-1.95969	0
451.971	-0.3172	-1.95961	0
451.974	-0.323594	-1.95969	0
451.979	-0.330409	-1.9597	0
451.984	-0.336861	-1.95964	0
451.991	-0.34358	-1.95966	0
451.999	-0.350127	-1.9597	0
452.011	-0.356617	-1.95967	0
452.029	-0.363031	-1.95963	0
452.061	-0.36933	-1.95965	0
452.142	-0.375591	-1.95967	0
452.247	-0.381718	-1.9597	0
452.357	-0.388017	-1.95965	0
452.491	-0.394278	-1.95969	0
452.657	-0.400539	-1.95969	0
452.875	-0.406762	-1.95965	0
453.182	-0.412966	-1.95969	0
453.593	-0.419055	-1.9597	0
454.119	-0.42522	-1.95969	0
454.737	-0.431386	-1.95964	0
455.432	-0.437532	-1.95971	0
456.196	-0.443717	-1.95972	0
457.022	-0.449921	-1.95969	0
457.918	-0.45601	-1.95963	0
458.897	-0.462156	-1.95976	0
460.042	-0.468494	-1.95972	0
461.219	-0.474621	-1.95963	0
462.525	-0.480748	-1.95966	0
463.958	-0.486895	-1.95969	0
465.758	-0.493041	-1.95972	0
468.164	-0.499245	-1.95972	0
472.536	-0.505372	-1.95967	0
480.655	-0.499226	-1.95969	0
483.704	-0.493022	-1.95969	0
486.099	-0.486742	-1.95971	0
488.373	-0.480481	-1.95969	0
490.421	-0.474354	-1.95974	0
492.4	-0.468245	-1.95974	0
494.301	-0.461985	-1.95969	0
496.243	-0.455781	-1.95972	0
498.102	-0.449634	-1.95965	0
500.076	-0.443373	-1.95976	0
501.997	-0.437265	-1.95965	0
504.035	-0.431004	-1.95973	0
506.054	-0.4248	-1.95972	0
508.126	-0.418673	-1.95975	0
510.275	-0.412527	-1.95973	0
512.492	-0.40638	-1.95974	0
514.854	-0.400196	-1.95976	0
517.274	-0.394049	-1.95973	0
519.835	-0.387865	-1.95972	0
522.526	-0.38168	-1.95972	0
525.104	-0.375572	-1.95967	0
527.863	-0.369425	-1.95968	0
530.298	-0.360129	-1.95978	0
530.317	-0.351654	-1.95973	0
530.321	-0.358125	-1.95974	0
530.338	-0.359919	-1.95968	0
530.351	-0.349669	-1.95972	0
530.371	-0.348791	-1.95978	0
530.39	-0.343293	-1.95974	0
530.4	-0.340449	-1.95963	0
530.407	-0.332089	-1.95976	0
530.431	-0.328538	-1.95972	0
530.444	-0.334608	-1.95973	0
530.449	-0.334341	-1.95972	0
530.456	-0.336078	-1.95969	0
530.463	-0.340774	-1.95974	0
530.466	-0.328767	-1.95976	0
530.471	-0.320025	-1.95964	0
530.498	-0.315348	-1.95972	0
530.507	-0.317791	-1.9598	0
530.52	-0.310862	-1.95971	0
530.538	-0.312256	-1.95973	0
530.544	-0.313229	-1.95969	0
530.555	-0.310442	-1.95973	0
530.575	-0.302559	-1.95973	0
530.583	-0.296241	-1.9597	0
530.609	-0.292328	-1.95974	0
530.625	-0.298722	-1.95971	0
530.631	-0.303647	-1.95973	0
530.636	-0.311588	-1.95973	0
530.646	-0.307961	-1.95966	0
530.651	-0.313783	-1.95974	0
530.659	-0.304143	-1.95972	0
530.671	-0.296584	-1.95974	0
530.694	-0.293034	-1.95967	0
530.706	-0.289655	-1.95969	0
530.735	-0.288663	-1.95969	0
530.741	-0.295687	-1.95972	0
530.761	-0.289827	-1.95975	0
530.781	-0.291869	-1.95973	0
530.791	-0.286945	-1.95972	0
530.81	-0.280455	-1.9597	0
530.822	-0.280016	-1.95976	0
530.842	-0.276332	-1.95972	0
530.858	-0.272991	-1.9597	0
530.87	-0.26925	-1.95971	0
530.883	-0.266635	-1.9597	0
530.897	-0.264974	-1.95973	0
530.922	-0.260278	-1.95974	0
530.942	-0.263294	-1.95972	0
530.955	-0.269918	-1.95976	0
530.96	-0.261252	-1.95968	0
530.986	-0.258541	-1.95974	0
530.997	-0.259839	-1.95972	0
531.012	-0.257224	-1.95976	0
531.023	-0.249035	-1.9597	0
531.034	-0.239644	-1.95969	0
531.059	-0.232887	-1.95976	0
531.075	-0.236647	-1.95973	0
531.09	-0.234585	-1.95979	0
531.109	-0.236704	-1.95967	0
531.125	-0.23176	-1.95971	0
531.144	-0.226358	-1.95973	0
531.166	-0.217311	-1.95972	0
531.216	-0.213455	-1.9597	0
531.228	-0.213283	-1.95976	0
531.252	-0.211909	-1.95976	0
531.295	-0.209732	-1.95972	0
531.317	-0.206831	-1.95971	0
531.354	-0.211126	-1.95973	0
531.412	-0.21063	-1.9597	0
531.43	-0.214409	-1.95976	0
531.465	-0.209942	-1.95974	0
531.515	-0.206736	-1.95969	0
531.545	-0.198528	-1.95964	0
531.57	-0.194233	-1.9597	0
531.614	-0.19177	-1.95972	0
531.648	-0.193393	-1.95972	0
531.696	-0.194004	-1.95976	0
531.767	-0.189403	-1.95973	0
531.866	-0.18465	-1.95972	0
531.931	-0.183791	-1.95977	0
532.008	-0.176958	-1.95974	0
532.076	-0.176748	-1.95976	0
532.14	-0.169323	-1.95972	0
532.179	-0.161859	-1.95973	0
532.35	-0.161878	-1.95972	0
532.544	-0.159817	-1.95971	0
532.753	-0.159683	-1.95975	0
532.897	-0.155369	-1.95974	0
532.995	-0.157583	-1.9597	0
533.092	-0.150979	-1.95978	0
533.342	-0.146856	-1.95974	0
533.695	-0.140423	-1.95967	0
533.883	-0.138438	-1.95972	0
534.199	-0.132253	-1.95967	0
534.652	-0.129848	-1.95972	0
535.524	-0.123472	-1.95971	0
536.787	-0.123396	-1.95974	0
538.24	-0.1254	-1.95973	0
539.515	-0.129485	-1.95972	0
540.544	-0.129562	-1.95976	0
541.514	-0.133551	-1.95975	0
542.918	-0.135632	-1.95974	0
543.367	-0.13777	-1.95971	0
544.419	-0.143992	-1.95974	0
545.723	-0.148192	-1.95968	0
546.521	-0.148115	-1.95974	0
547.262	-0.152181	-1.9597	0
548.275	-0.154281	-1.95968	0
548.701	-0.15848	-1.95978	0
549.431	-0.164627	-1.9597	0
550.18	-0.164436	-1.95969	0
550.693	-0.162184	-1.95976	0
550.853	-0.164207	-1.95967	0
551.489	-0.166211	-1.95968	0
551.85	-0.16623	-1.95975	0
552.056	-0.157354	-1.95972	0
552.418	-0.160504	-1.95974	0
552.503	-0.152907	-1.95974	0
552.7	-0.146302	-1.95978	0
553.314	-0.139927	-1.95967	0
553.711	-0.14405	-1.95976	0
554.389	-0.143801	-1.95973	0
554.813	-0.143954	-1.95972	0
555.147	-0.141263	-1.95981	0
555.205	-0.13357	-1.9597	0
556.151	-0.12918	-1.95975	0
556.567	-0.128989	-1.95978	0
557.222	-0.12708	-1.95967	0
558.571	-0.126317	-1.95981	0
559.394	-0.121945	-1.95969	0
560.125	-0.113966	-1.9597	0
560.765	-0.114119	-1.95972	0
561.288	-0.107915	-1.95973	0
563.595	-0.107992	-1.95972	0
565.207	-0.110168	-1.95976	0
565.8	-0.108049	-1.95977	0
567.518	-0.110149	-1.95971	0
569.051	-0.108087	-1.95973	0
570.97	-0.110149	-1.95969	0
572.996	-0.107801	-1.95974	0
574.224	-0.111905	-1.95975	0
575.154	-0.113947	-1.95974	0
576.808	-0.116715	-1.95967	0
577.303	-0.118796	-1.95974	0
577.516	-0.11662	-1.95963	0
577.59	-0.116906	-1.9597	0
577.759	-0.119082	-1.95963	0
577.956	-0.116792	-1.95968	0
578.419	-0.118624	-1.9597	0
578.668	-0.118548	-1.9597	0
579.169	-0.118548	-1.95976	0
579.469	-0.11641	-1.95968	0
579.63	-0.116276	-1.95974	0
579.791	-0.1183	-1.95976	0
580.904	-0.12248	-1.95972	0
581.294	-0.120304	-1.95972	0
581.417	-0.117803	-1.9597	0
581.673	-0.117708	-1.95969	0
581.817	-0.117899	-1.95972	0
581.997	-0.117822	-1.95972	0
582.229	-0.118185	-1.95971	0
582.583	-0.118681	-1.95974	0
584.104	-0.12519	-1.95972	0
584.791	-0.129256	-1.95976	0
585.932	-0.135441	-1.95973	0
586.582	-0.139793	-1.95975	0
586.722	-0.139927	-1.95975	0
586.996	-0.13985	-1.95974	0
587.711	-0.139907	-1.95974	0
588.033	-0.14006	-1.95971	0
588.515	-0.135594	-1.95976	0
590.034	-0.131299	-1.9597	0
590.606	-0.133704	-1.95969	0
592.66	-0.133666	-1.95967	0
595.982	-0.133666	-1.95972	0
597.29	-0.126584	-1.95974	0
598.276	-0.124312	-1.9597	0
599.029	-0.12164	-1.95977	0
600.868	-0.121697	-1.95974	0
602.707	-0.124064	-1.95972	0
603.688	-0.121583	-1.95974	0
604.703	-0.120934	-1.95969	0
607.316	-0.127118	-1.95974	0
608.695	-0.122976	-1.95968	0
609.773	-0.122747	-1.95971	0
610.579	-0.129008	-1.95973	0
611.646	-0.129218	-1.95973	0
612.887	-0.13126	-1.95969	0
614.75	-0.135823	-1.95974	0
615.891	-0.13525	-1.95968	0
616.668	-0.13943	-1.95973	0
617.671	-0.143935	-1.95974	0
618.185	-0.141492	-1.95971	0
619.19	-0.145691	-1.9597	0
620.68	-0.146646	-1.95969	0
621.939	-0.143916	-1.95974	0
622.85	-0.136853	-1.95972	0
624.341	-0.141015	-1.95974	0
625.874	-0.142141	-1.95973	0
627.021	-0.142465	-1.95971	0
628.307	-0.146627	-1.95972	0
629.575	-0.148574	-1.95974	0
630.504	-0.152639	-1.95972	0
631.37	-0.152277	-1.95974	0
631.927	-0.148192	-1.95975	0