File: EXPERIMENTAL-DATA/Cycling-data-Master-thesis/I-cell/2024-04-26_JP-measurements_sample-A6-03_M-cell_Cu-Li-Cellgard2400-separator_25muL-LiFSI-in-DME_outside-glovebox_sigma-0.002_added-OCV-0.1s_Deltax110.2mm_02_MB_C01.txt
time/s	Ewe/V	I/mA	error
60.053	2.62344	-0.0250252	0
60.1732	0.00939951	-12.1737	0
60.1738	0.00955224	-12.1119	0
60.1742	0.00939951	-12.0616	0
60.1748	0.0094186	-12.003	0
60.1754	0.00938042	-11.9355	0
60.176	0.00945679	-11.8712	0
60.1766	0.00949497	-11.805	0
60.1772	0.00939951	-11.7413	0
60.1778	0.00949497	-11.6776	0
60.1784	0.00945679	-11.6178	0
60.179	0.00949497	-11.556	0
60.1796	0.00936133	-11.4948	0
60.1802	0.0094186	-11.4356	0
60.1808	0.0094186	-11.3624	0
60.1816	0.0094377	-11.2987	0
60.1822	0.00938042	-11.2376	0
60.1828	0.0094186	-11.1764	0
60.1834	0.00951406	-11.1115	0
60.184	0.00939951	-11.0554	0
60.1846	0.00945679	-10.9987	0
60.1852	0.00947588	-10.9446	0
60.1858	0.0094377	-10.8803	0
60.1864	0.00945679	-10.8268	0
60.187	0.0094186	-10.7695	0
60.1876	0.00947588	-10.7115	0
60.1882	0.00947588	-10.6599	0
60.1888	0.00947588	-10.6013	0
60.1894	0.0094186	-10.5408	0
60.1902	0.0094186	-10.4765	0
60.1908	0.00934224	-10.4173	0
60.1916	0.00947588	-10.3536	0
60.1922	0.0094377	-10.2931	0
60.1928	0.0094377	-10.2371	0
60.1936	0.0094377	-10.1855	0
60.1942	0.00938042	-10.1192	0
60.1948	0.00947588	-10.0689	0
60.1954	0.00934224	-10.0123	0
60.1962	0.00951406	-9.9422	0
60.197	0.0094186	-9.88234	0
60.1976	0.0094377	-9.83076	0
60.1982	0.00955224	-9.77981	0
60.199	0.0094377	-9.71867	0
60.1996	0.0094377	-9.66454	0
60.2004	0.00938042	-9.60531	0
60.201	0.00945679	-9.555	0
60.2016	0.00945679	-9.50405	0
60.2024	0.00945679	-9.44482	0
60.2032	0.00939951	-9.37604	0
60.204	0.00955224	-9.32128	0
60.2048	0.00947588	-9.26077	0
60.2056	0.0094377	-9.19645	0
60.2064	0.00949497	-9.13786	0
60.2072	0.00951406	-9.0729	0
60.208	0.00951406	-9.01431	0
60.2088	0.00957133	-8.95318	0
60.2096	0.00936133	-8.90032	0
60.2104	0.00947588	-8.84364	0
60.2112	0.00939951	-8.78632	0
60.212	0.00949497	-8.73346	0
60.2128	0.00939951	-8.67487	0
60.2136	0.00947588	-8.61883	0
60.2144	0.00947588	-8.56406	0
60.2152	0.00951406	-8.50165	0
60.2162	0.00936133	-8.44561	0
60.217	0.0094377	-8.38829	0
60.2178	0.00938042	-8.33607	0
60.2186	0.0094377	-8.28512	0
60.2194	0.0094186	-8.23481	0
60.2204	0.00939951	-8.17431	0
60.2214	0.00947588	-8.10872	0
60.2222	0.00938042	-8.05076	0
60.2232	0.00934224	-7.99472	0
60.2242	0.0094186	-7.93103	0
60.2252	0.00938042	-7.88009	0
60.226	0.00939951	-7.82532	0
60.227	0.00947588	-7.76864	0
60.228	0.00936133	-7.70941	0
60.229	0.00947588	-7.65018	0
60.23	0.00951406	-7.59605	0
60.231	0.0094377	-7.54001	0
60.2318	0.00947588	-7.4897	0
60.2328	0.00947588	-7.4362	0
60.2338	0.0094377	-7.38207	0
60.235	0.00945679	-7.31902	0
60.236	0.0094377	-7.26489	0
60.2372	0.00939951	-7.20439	0
60.2384	0.00939951	-7.14198	0
60.2396	0.00949497	-7.08339	0
60.2408	0.00949497	-7.02416	0
60.242	0.0094186	-6.9643	0
60.243	0.00955224	-6.90953	0
60.2442	0.0094377	-6.85858	0
60.2454	0.0094186	-6.807	0
60.2466	0.0094377	-6.74904	0
60.2478	0.0094377	-6.69109	0
60.2492	0.00947588	-6.62931	0
60.2504	0.00947588	-6.57582	0
60.2516	0.0094186	-6.5236	0
60.253	0.00947588	-6.45545	0
60.2544	0.0094186	-6.40196	0
60.2556	0.00934224	-6.34592	0
60.257	0.0094377	-6.29561	0
60.2582	0.0094377	-6.24211	0
60.2594	0.00936133	-6.19116	0
60.2608	0.00953315	-6.14085	0
60.2622	0.00939951	-6.08799	0
60.2636	0.00934224	-6.02813	0
60.265	0.0094186	-5.97654	0
60.2664	0.00945679	-5.92369	0
60.268	0.00957133	-5.86637	0
60.2696	0.00955224	-5.81096	0
60.2712	0.0094377	-5.75492	0
60.2728	0.00947588	-5.69697	0
60.2742	0.00932315	-5.64029	0
60.276	0.00936133	-5.58998	0
60.2776	0.00945679	-5.52948	0
60.2794	0.00947588	-5.47598	0
60.281	0.00945679	-5.42249	0
60.2828	0.00939951	-5.3639	0
60.2848	0.00939951	-5.30976	0
60.2866	0.0094377	-5.24799	0
60.2886	0.00945679	-5.19004	0
60.2906	0.00949497	-5.13081	0
60.2922	0.0094377	-5.07986	0
60.2944	0.0094186	-5.02764	0
60.2964	0.00939951	-4.97478	0
60.2982	0.00938042	-4.91746	0
60.3004	0.00939951	-4.86333	0
60.3024	0.00936133	-4.8092	0
60.3048	0.00947588	-4.74997	0
60.3072	0.00949497	-4.69457	0
60.3092	0.0094186	-4.63916	0
60.3116	0.00949497	-4.58885	0
60.3136	0.0094186	-4.53854	0
60.3164	0.00945679	-4.47549	0
60.3188	0.00951406	-4.42391	0
60.3214	0.00939951	-4.36404	0
60.324	0.0094186	-4.31309	0
60.3266	0.00955224	-4.26278	0
60.3292	0.00945679	-4.21184	0
60.3316	0.00945679	-4.16025	0
60.3344	0.0094377	-4.10357	0
60.3372	0.00953315	-4.04944	0
60.3404	0.00949497	-3.9934	0
60.3434	0.00945679	-3.93226	0
60.3468	0.0094377	-3.87749	0
60.35	0.00945679	-3.82527	0
60.3532	0.00949497	-3.77368	0
60.3564	0.0094377	-3.72274	0
60.3596	0.00947588	-3.66733	0
60.3632	0.0094377	-3.61129	0
60.3668	0.0094186	-3.56034	0
60.3702	0.00939951	-3.50875	0
60.4034	0.00947588	-3.10253	0
60.4082	0.0094186	-3.05083	0
60.413	0.00945679	-3.00041	0
60.418	0.00938042	-2.94916	0
60.423	0.00949497	-2.89836	0
60.4284	0.00947588	-2.84718	0
60.434	0.0094377	-2.79663	0
60.4398	0.00939951	-2.74596	0
60.4458	0.0094377	-2.69363	0
60.452	0.0094186	-2.64321	0
60.4584	0.00945679	-2.59234	0
60.4652	0.0094377	-2.5409	0
60.4722	0.0094186	-2.49042	0
60.4796	0.00938042	-2.4393	0
60.4872	0.00945679	-2.38843	0
60.4952	0.00947588	-2.33795	0
60.5034	0.0094377	-2.28778	0
60.5122	0.00938042	-2.2373	0
60.5212	0.0094377	-2.18669	0
60.5308	0.0094186	-2.13665	0
60.5408	0.00959042	-2.08636	0
60.5512	0.00934224	-2.03606	0
60.5624	0.00947588	-1.98603	0
60.5742	0.00949497	-1.93471	0
60.5868	0.0094377	-1.88455	0
60.6	0.00939951	-1.83394	0
60.6138	0.00938042	-1.78358	0
60.6288	0.00945679	-1.73297	0
60.6446	0.0094377	-1.68242	0
60.6616	0.00951406	-1.63188	0
60.6796	0.00938042	-1.5812	0
60.6988	0.00939951	-1.5311	0
60.7198	0.0094377	-1.48087	0
60.7418	0.00949497	-1.43051	0
60.766	0.00945679	-1.38048	0
60.7926	0.00945679	-1.32872	0
60.8218	0.00955224	-1.27855	0
60.8528	0.00947588	-1.22852	0
60.8868	0.00934224	-1.17822	0
60.9252	0.00949497	-1.12787	0
60.9672	0.00947588	-1.07751	0
61.0142	0.00945679	-1.02677	0
61.0668	0.00939951	-0.976542	0
61.1266	0.00939951	-0.92625	0
61.1948	0.00945679	-0.875511	0
61.2738	0.00938042	-0.825091	0
61.3634	0.00939951	-0.774926	0
61.4688	0.0094377	-0.724888	0
61.5932	0.00947588	-0.674531	0
61.7416	0.0094186	-0.624493	0
61.9186	0.00934224	-0.574391	0
62.1378	0.00951406	-0.523971	0
62.4064	0.00939951	-0.473933	0
62.7598	0.00939951	-0.423878	0
63.202	0.00953315	-0.373787	0
63.79	0.0094377	-0.323754	0
64.6132	0.00938042	-0.273689	0
65.0528	0.0094377	-0.253741	0
65.0534	0.00945679	-0.253104	0
66.5374	0.0094186	-0.203103	0
69.1138	0.0094377	-0.153064	0
74.5186	0.00938042	-0.103011	0
84.5186	0.00939951	-0.0656234	0
94.5186	0.00949497	-0.0480819	0
104.519	0.0094377	-0.0377952	0
114.519	0.0094377	-0.0309229	0
124.519	0.00947588	-0.0260174	0
134.519	0.00951406	-0.0222213	0
144.519	0.0094186	-0.0194124	0
154.519	0.0094377	-0.0171305	0
164.519	0.00953315	-0.0153254	0
174.519	0.00957133	-0.0137781	0
184.519	0.0094186	-0.0125337	0
194.519	0.00936133	-0.0113969	0
204.519	0.00949497	-0.0106038	0
214.519	0.0094377	-0.00978848	0
224.519	0.00945679	-0.00900622	0
234.519	0.00939951	-0.00843336	0
244.519	0.00947588	-0.00792353	0
254.519	0.0094377	-0.00748243	0
264.519	0.00947588	-0.00699933	0
274.519	0.00945679	-0.00671163	0
284.519	0.00955224	-0.00629217	0
294.519	0.00945679	-0.0059771	0
304.519	0.00947588	-0.00573587	0
314.519	0.0094377	-0.00545899	0
324.519	0.00945679	-0.0052133	0
334.519	0.00947588	-0.00494406	0
344.519	0.00939951	-0.00477093	0
354.519	0.00945679	-0.004643	0
364.519	0.00934224	-0.00441788	0
374.519	0.00947588	-0.00424472	0
384.519	0.0094186	-0.00415807	0
394.519	0.00945679	-0.00395525	0
395.319	0.00947588	-0.00391202	0
395.319	0.0094186	-0.00392297	0