File: EXPERIMENTAL-DATA/Cycling-data-Master-thesis/I-cell/2024-04-24_JP-measurements_sample-A4-01_M-cell_Cu-Li-Cellgard2400-separator_25muL-LiFSI-in-DME_outside-glovebox_sigma-0.02_added-OCV-0.1s_Deltax110.4mm_04_CP_C11.txt
time/s	Ewe/V	I/mA	error
3961.45	0.00834288	-0.019471	0
3961.49	-3.37559e-05	-0.0195951	0
3961.56	-0.00722985	-0.0195932	0
3961.65	-0.014655	-0.0195945	0
3961.76	-0.0220229	-0.0195862	0
3961.87	-0.0293526	-0.0195875	0
3962	-0.0367205	-0.0195913	0
3962.15	-0.0441075	-0.0195964	0
3962.31	-0.0513417	-0.0195862	0
3962.49	-0.0585951	-0.0195951	0
3962.7	-0.0657721	-0.0195945	0
3962.94	-0.0729682	-0.01959	0
3963.25	-0.0802216	-0.0195894	0
3963.74	-0.0874558	-0.0195925	0
3964.95	-0.0843445	-0.01959	0
3965.45	-0.0771675	-0.01959	0
3965.97	-0.0699142	-0.0195881	0
3966.66	-0.0627753	-0.0195875	0
3967.83	-0.0556365	-0.0195919	0
3970.12	-0.0484022	-0.0195881	0
3985.83	-0.0412825	-0.0195945	0
4046.43	-0.035518	-0.0195945	0
4116.43	-0.0324066	-0.0195875	0
4186.43	-0.0307269	-0.0195964	0
4256.43	-0.0293335	-0.0196002	0
4326.43	-0.0284555	-0.0195945	0
4396.43	-0.027692	-0.0195862	0
4466.43	-0.0271957	-0.0195925	0
4536.43	-0.0268903	-0.0195913	0
4606.43	-0.0263558	-0.0195983	0
4676.43	-0.0259359	-0.0195957	0
4746.43	-0.0257641	-0.019597	0
4816.43	-0.025516	-0.0195957	0
4886.43	-0.0251342	-0.0195945	0
4956.43	-0.0250578	-0.0195938	0
5026.43	-0.0249815	-0.0195862	0
5096.43	-0.0247334	-0.0195938	0
5166.43	-0.0245807	-0.0196002	0
5236.43	-0.0245997	-0.0195862	0
5306.43	-0.024447	-0.0195925	0
5376.43	-0.0242943	-0.0195989	0
5446.43	-0.0242562	-0.0195951	0
5492.18	-0.02313	-0.0195868	0
5552.9	-0.0241416	-0.0195932	0
5622.9	-0.0240271	-0.0195945	0
5692.9	-0.0239698	-0.0195932	0
5762.9	-0.0238935	-0.0195938	0
5832.9	-0.0237026	-0.0196021	0
5902.9	-0.023779	-0.0195938	0
5972.9	-0.0236644	-0.0195989	0
6042.9	-0.0235881	-0.0195932	0
6112.9	-0.0236263	-0.0195938	0
6182.9	-0.0234736	-0.0195983	0
6252.9	-0.0234926	-0.0195862	0
6322.9	-0.0234354	-0.0195919	0
6392.9	-0.0233972	-0.0195932	0
6462.9	-0.0232636	-0.0195868	0
6532.9	-0.0233399	-0.0195964	0
6602.9	-0.0233972	-0.0195932	0
6672.9	-0.0231872	-0.0195957	0
6742.9	-0.0233018	-0.0195925	0
6812.9	-0.0233209	-0.0195932	0
6882.9	-0.02313	-0.0195919	0
6952.9	-0.0231109	-0.0195919	0
7022.9	-0.0232254	-0.01959	0
7092.9	-0.0231109	-0.0195951	0
7162.9	-0.02313	-0.0195881	0
7232.9	-0.0229773	-0.0195919	0
7302.9	-0.0229964	-0.0195945	0
7372.9	-0.02292	-0.0195906	0
7442.9	-0.0229773	-0.0195925	0
7512.9	-0.0228818	-0.0195913	0
7582.9	-0.0228055	-0.0195906	0
7652.9	-0.0228055	-0.0195976	0
7722.9	-0.0228818	-0.0195964	0
7792.9	-0.0228246	-0.0195976	0
7862.9	-0.0228437	-0.0195932	0
7932.9	-0.0229391	-0.0195894	0
8002.9	-0.0228055	-0.0195976	0
8072.9	-0.0228055	-0.0195868	0
8142.9	-0.0228246	-0.0195964	0
8212.9	-0.0228246	-0.0195957	0
8282.9	-0.0227864	-0.0195957	0
8352.9	-0.0228437	-0.0195932	0
8422.9	-0.0227673	-0.0195855	0
8492.9	-0.0227864	-0.0195906	0
8562.9	-0.0227101	-0.0195995	0
8632.9	-0.0227673	-0.0195932	0
8702.9	-0.022691	-0.0195976	0
8772.9	-0.022691	-0.0195938	0
8842.9	-0.0226146	-0.0195868	0
8912.9	-0.022691	-0.0195925	0
8982.9	-0.0226719	-0.0195913	0
9052.9	-0.0227101	-0.0195913	0
9122.9	-0.0227101	-0.0196002	0
9192.9	-0.022691	-0.0195957	0
9262.9	-0.0226528	-0.0195989	0
9332.9	-0.0226146	-0.0196002	0
9402.9	-0.0225383	-0.01959	0
9472.9	-0.0225573	-0.0196008	0
9542.9	-0.0226146	-0.0195951	0
9612.9	-0.0226146	-0.01959	0
9682.9	-0.0225192	-0.0195976	0
9752.9	-0.0225192	-0.0195919	0
9822.9	-0.0225383	-0.0195906	0
9892.9	-0.0224237	-0.0195983	0
9962.9	-0.0225573	-0.0195913	0
10032.9	-0.0225383	-0.0195945	0
10102.9	-0.0225955	-0.0195855	0
10172.9	-0.0225001	-0.0195983	0
10242.9	-0.0225573	-0.0195951	0
10312.9	-0.0223665	-0.0195925	0
10382.9	-0.0224619	-0.0195925	0
10452.9	-0.0224619	-0.0195938	0
10522.9	-0.0223665	-0.0195983	0
10592.9	-0.0225001	-0.0195964	0
10662.9	-0.0224046	-0.0195964	0
10732.9	-0.0222901	-0.0195919	0
10802.9	-0.0224237	-0.0195976	0
10872.9	-0.0223474	-0.0195989	0
10942.9	-0.022271	-0.0195906	0
11012.9	-0.0223665	-0.0195887	0
11082.9	-0.0223283	-0.0195957	0
11152.9	-0.0221947	-0.0195951	0
11222.9	-0.0223092	-0.0195964	0
11292.9	-0.0222519	-0.0195855	0
11362.9	-0.0224428	-0.0196014	0
11432.9	-0.0221947	-0.01959	0
11502.9	-0.0223092	-0.0195995	0
11572.9	-0.0222901	-0.0195913	0
11642.9	-0.0220992	-0.0195976	0
11712.9	-0.0221756	-0.0195862	0
11782.9	-0.022271	-0.0195983	0
11852.9	-0.0222138	-0.0195983	0
11922.9	-0.0223283	-0.0195957	0
11992.9	-0.0223092	-0.0195964	0
12062.9	-0.0223092	-0.0195925	0
12132.9	-0.0223665	-0.019597	0
12202.9	-0.0223474	-0.0195989	0
12272.9	-0.0222519	-0.0195938	0
12342.9	-0.022271	-0.0195887	0
12412.9	-0.0222329	-0.0195938	0
12482.9	-0.022271	-0.0195964	0
12552.9	-0.0222901	-0.0195925	0
12622.9	-0.0221565	-0.0196002	0
12692.9	-0.0222329	-0.0195906	0
12762.9	-0.0221183	-0.0196021	0
12832.9	-0.0221374	-0.0195976	0
12902.9	-0.0221183	-0.0195989	0
12972.9	-0.0221374	-0.0195951	0
13042.9	-0.0220992	-0.0195932	0
13112.9	-0.0221183	-0.0195919	0
13182.9	-0.0221756	-0.019597	0
13252.9	-0.0220992	-0.0195957	0
13322.9	-0.0220802	-0.0195919	0
13392.9	-0.0220611	-0.0195925	0
13462.9	-0.0220611	-0.0195951	0
13532.9	-0.0220802	-0.0195925	0
13602.9	-0.0220802	-0.0195951	0
13672.9	-0.0221183	-0.0195945	0
13742.9	-0.0221374	-0.0195938	0
13812.9	-0.022042	-0.0195951	0
13882.9	-0.0220229	-0.0195938	0
13952.9	-0.0222329	-0.0195894	0
14022.9	-0.0220802	-0.0196014	0
14092.9	-0.0221183	-0.0195932	0
14162.9	-0.0220229	-0.0195925	0
14232.9	-0.0221183	-0.0195919	0
14302.9	-0.0221565	-0.0195951	0
14372.9	-0.0220611	-0.0195976	0
14442.9	-0.0222138	-0.0195919	0
14512.9	-0.0220229	-0.0195932	0
14582.9	-0.0221374	-0.0195925	0
14652.9	-0.0220802	-0.0195964	0
14722.9	-0.0221756	-0.0195964	0
14792.9	-0.0220802	-0.0195894	0
14862.9	-0.0220992	-0.0195964	0
14932.9	-0.0219847	-0.0195919	0
15002.9	-0.0219847	-0.0195919	0
15072.9	-0.0220229	-0.0195983	0
15142.9	-0.0220611	-0.0195938	0
15212.9	-0.0220229	-0.0195887	0
15282.9	-0.0219465	-0.0195957	0
15352.9	-0.0220802	-0.0195906	0
15422.9	-0.0220992	-0.0195964	0
15492.9	-0.022042	-0.0195964	0
15562.9	-0.0220229	-0.0195951	0
15632.9	-0.0219465	-0.0195945	0
15702.9	-0.0220802	-0.019597	0
15772.9	-0.0219275	-0.0195913	0
15842.9	-0.0219847	-0.0195932	0
15912.9	-0.0218129	-0.0195957	0
15982.9	-0.0219465	-0.0195868	0
16052.9	-0.0219656	-0.0195945	0
16122.9	-0.0220038	-0.0196014	0
16192.9	-0.0219656	-0.019597	0
16262.9	-0.0220611	-0.0195964	0
16332.9	-0.0219656	-0.0195957	0
16402.9	-0.0219656	-0.0195938	0
16472.9	-0.0218702	-0.0195989	0
16542.9	-0.0219656	-0.0195913	0
16612.9	-0.0219084	-0.0195906	0
16682.9	-0.0219275	-0.0195976	0
16752.9	-0.0218893	-0.0195976	0
16822.9	-0.0219656	-0.01959	0
16892.9	-0.0220229	-0.0195951	0
16962.9	-0.0219275	-0.019597	0
17032.9	-0.0219847	-0.019597	0
17102.9	-0.0218511	-0.0195913	0
17172.9	-0.0219084	-0.01959	0
17242.9	-0.0217747	-0.0195951	0
17312.9	-0.0217747	-0.0195906	0
17382.9	-0.0218702	-0.0196002	0
17452.9	-0.0217938	-0.019597	0
17522.9	-0.0218129	-0.0195951	0
17592.9	-0.0218893	-0.019597	0
17662.9	-0.0218702	-0.0195938	0
17732.9	-0.0218893	-0.0195938	0
17802.9	-0.0217366	-0.0195925	0
17872.9	-0.0216984	-0.0195995	0
17942.9	-0.0218511	-0.0195945	0
18012.9	-0.0216984	-0.0196034	0
18082.9	-0.0218511	-0.0195894	0
18152.9	-0.0217175	-0.0195951	0
18222.9	-0.0217938	-0.0195945	0
18292.9	-0.0216793	-0.0195938	0
18362.9	-0.0217557	-0.0195976	0
18432.9	-0.0217747	-0.0195951	0
18502.9	-0.021622	-0.0195945	0
18572.9	-0.0217938	-0.0195957	0
18642.9	-0.0217557	-0.0195989	0
18712.9	-0.0216793	-0.0195983	0
18782.9	-0.0215266	-0.0195919	0
18852.9	-0.0216602	-0.0195925	0
18922.9	-0.0216793	-0.0195913	0
18992.9	-0.0216984	-0.0195925	0
19062.9	-0.0214884	-0.0195913	0
19132.9	-0.0216984	-0.0195906	0
19202.9	-0.0217175	-0.0195964	0
19272.9	-0.0217175	-0.019597	0
19342.9	-0.0215839	-0.0195881	0
19412.9	-0.0216602	-0.0195989	0
19482.9	-0.0216411	-0.0195919	0
19552.9	-0.021622	-0.01959	0
19622.9	-0.0216411	-0.0195932	0
19692.9	-0.0214884	-0.0195938	0
19762.9	-0.021622	-0.0195894	0
19832.9	-0.0215839	-0.0195887	0
19902.9	-0.0217175	-0.0195957	0
19972.9	-0.0214503	-0.0195938	0
20042.9	-0.021603	-0.0195945	0
20112.9	-0.0215457	-0.0195925	0
20182.9	-0.0214503	-0.0195932	0
20252.9	-0.0215839	-0.0195925	0
20322.9	-0.021603	-0.0195951	0
20392.9	-0.021603	-0.0195989	0
20462.9	-0.0214884	-0.019597	0
20532.9	-0.0214693	-0.0195976	0
20602.9	-0.0214884	-0.0196014	0
20672.9	-0.0214884	-0.0196008	0
20742.9	-0.0214693	-0.0195913	0
20812.9	-0.0214121	-0.0195932	0
20882.9	-0.0215457	-0.0195938	0
20952.9	-0.0214503	-0.0195976	0
21022.9	-0.0215266	-0.0195906	0
21092.9	-0.0215075	-0.019597	0
21162.9	-0.0213357	-0.0195894	0
21232.9	-0.0215266	-0.0195919	0
21302.9	-0.0214884	-0.0195951	0
21372.9	-0.0214121	-0.0195887	0
21442.9	-0.021393	-0.019597	0
21512.9	-0.021393	-0.0195919	0
21582.9	-0.0214884	-0.0196008	0
21652.9	-0.0213548	-0.0195932	0
21722.9	-0.0215075	-0.0195957	0
21792.9	-0.0213739	-0.0195913	0
21862.9	-0.0214503	-0.0195925	0
21932.9	-0.0212403	-0.0195983	0
21961.4	-0.0214312	-0.0195932	0