File: EXPERIMENTAL-DATA/Cycling-data-Master-thesis/I-cell/2024-04-25_JP_sample-A4-02-extra_M-cell_Cu-Li-Cellgard2400-separator_25muL-LiFSI-in-DME_outside-glovebox_sigma-0.02_low-OCV_Deltax110.2mm_04_CP_C11.txt
time/s	Ewe/V	I/mA	error
266.616	-0.0520262	-1.94489	0
266.617	-0.159646	-1.95955	0
266.619	-0.18719	-1.95952	0
266.621	-0.207938	-1.95954	0
266.622	-0.225155	-1.95959	0
266.624	-0.239891	-1.95958	0
266.625	-0.252699	-1.95962	0
266.627	-0.264228	-1.9596	0
266.629	-0.274707	-1.95959	0
266.63	-0.284156	-1.9596	0
266.632	-0.292611	-1.95958	0
266.635	-0.306946	-1.95956	0
266.638	-0.319811	-1.9596	0
266.641	-0.330424	-1.9596	0
266.645	-0.340465	-1.95959	0
266.65	-0.349378	-1.95956	0
266.661	-0.35835	-1.9596	0
266.714	-0.358464	-1.95962	0
266.857	-0.362835	-1.9596	0
266.947	-0.371253	-1.9596	0
267.043	-0.379747	-1.95961	0
267.152	-0.387955	-1.95958	0
267.284	-0.396315	-1.95967	0
267.44	-0.404657	-1.95963	0
267.639	-0.413017	-1.95965	0
267.885	-0.421359	-1.95966	0
268.215	-0.4297	-1.95962	0
268.666	-0.437946	-1.95962	0
269.39	-0.446344	-1.95963	0
270.826	-0.45459	-1.9596	0
273.925	-0.462836	-1.95959	0
277.128	-0.47112	-1.95962	0
280.362	-0.479328	-1.9597	0
285.093	-0.48744	-1.95965	0
297.586	-0.484635	-1.95962	0
302.228	-0.476427	-1.9597	0
305.775	-0.468238	-1.9596	0
308.974	-0.46005	-1.95969	0
312.017	-0.451823	-1.95963	0
314.968	-0.443653	-1.95965	0
317.961	-0.435426	-1.95965	0
320.99	-0.427238	-1.95964	0
324.187	-0.419011	-1.95966	0
327.48	-0.410803	-1.95963	0
330.907	-0.402691	-1.95965	0
334.619	-0.394502	-1.95965	0
338.511	-0.386294	-1.95965	0
342.579	-0.378029	-1.95964	0
346.684	-0.369783	-1.95958	0
350.16	-0.358884	-1.95966	0
350.283	-0.359667	-1.95967	0
350.386	-0.358827	-1.95966	0
350.436	-0.351974	-1.95966	0
350.543	-0.356116	-1.95963	0
350.859	-0.355811	-1.95957	0
351.085	-0.354742	-1.95962	0
351.187	-0.35228	-1.95958	0
351.331	-0.352089	-1.95964	0
351.514	-0.348176	-1.95965	0
351.653	-0.351822	-1.95963	0
351.711	-0.347241	-1.95964	0
351.801	-0.344817	-1.95962	0
351.854	-0.346095	-1.95963	0
351.894	-0.350237	-1.95969	0
351.942	-0.342011	-1.95975	0
351.976	-0.341094	-1.9596	0
352.056	-0.344664	-1.95965	0
352.1	-0.337735	-1.9596	0
352.159	-0.336303	-1.9597	0
352.24	-0.332314	-1.95964	0
352.299	-0.335406	-1.95964	0
352.33	-0.330749	-1.95968	0
352.351	-0.316948	-1.95969	0
352.371	-0.314849	-1.95962	0
352.402	-0.316395	-1.95965	0
352.416	-0.317025	-1.95962	0
352.457	-0.314811	-1.95967	0
352.487	-0.311947	-1.95964	0
352.519	-0.311317	-1.95969	0
352.549	-0.311928	-1.95965	0
352.574	-0.317998	-1.95965	0
352.617	-0.314963	-1.95966	0
352.647	-0.304045	-1.95965	0
352.685	-0.301735	-1.95973	0
352.717	-0.301735	-1.95964	0
352.756	-0.303091	-1.95966	0
352.788	-0.305877	-1.95965	0
352.821	-0.309905	-1.95958	0
352.834	-0.307233	-1.95966	0
352.869	-0.303243	-1.95965	0
352.9	-0.305248	-1.95961	0
352.923	-0.299655	-1.95965	0
352.983	-0.30122	-1.95962	0
353.004	-0.299483	-1.95965	0
353.044	-0.294959	-1.95958	0
353.065	-0.29872	-1.95965	0
353.12	-0.293108	-1.95964	0
353.166	-0.296448	-1.95965	0
353.193	-0.30477	-1.95965	0
353.23	-0.299674	-1.95965	0
353.262	-0.294138	-1.9596	0
353.292	-0.291409	-1.95965	0
353.303	-0.285224	-1.95968	0
353.344	-0.282151	-1.95965	0
353.378	-0.284728	-1.95966	0
353.431	-0.287133	-1.95964	0
353.47	-0.287152	-1.95963	0
353.507	-0.283545	-1.95965	0
353.544	-0.279174	-1.95965	0
353.58	-0.283106	-1.95969	0
353.61	-0.285091	-1.95965	0
353.649	-0.281197	-1.9597	0
353.667	-0.278696	-1.9596	0
353.71	-0.276711	-1.95967	0
353.736	-0.281101	-1.9596	0
353.772	-0.274211	-1.95965	0
353.804	-0.27068	-1.95966	0
353.832	-0.267893	-1.95963	0
353.859	-0.274478	-1.95969	0
353.887	-0.268733	-1.95966	0
353.924	-0.263197	-1.95968	0
353.958	-0.262224	-1.95967	0
354.004	-0.266595	-1.95964	0
354.037	-0.263083	-1.95967	0
354.087	-0.256306	-1.95963	0
354.122	-0.257165	-1.95962	0
354.157	-0.254417	-1.95968	0
354.184	-0.262147	-1.9596	0
354.227	-0.261155	-1.95975	0
354.251	-0.256574	-1.95967	0
354.29	-0.25917	-1.95969	0
354.328	-0.254741	-1.95959	0
354.383	-0.25352	-1.95962	0
354.427	-0.249568	-1.95958	0
354.475	-0.248748	-1.95967	0
354.511	-0.247144	-1.95965	0
354.53	-0.240979	-1.95967	0
354.584	-0.247278	-1.95963	0
354.613	-0.247774	-1.95965	0
354.653	-0.236761	-1.95963	0
354.686	-0.233955	-1.95962	0
354.739	-0.233745	-1.95963	0
354.785	-0.228438	-1.95966	0
354.819	-0.218589	-1.95964	0
354.855	-0.227236	-1.95964	0
354.89	-0.22651	-1.9596	0
354.901	-0.220154	-1.95965	0
354.948	-0.211507	-1.95966	0
355.01	-0.208358	-1.95963	0
355.057	-0.203605	-1.9596	0
355.095	-0.205647	-1.95969	0
355.139	-0.207766	-1.95967	0
355.181	-0.206182	-1.9596	0
355.238	-0.201257	-1.95965	0
355.276	-0.191809	-1.95959	0
355.339	-0.193584	-1.95968	0
355.395	-0.189728	-1.95968	0
355.46	-0.1807	-1.95967	0
355.544	-0.178066	-1.95957	0
355.66	-0.179669	-1.95967	0
355.768	-0.17923	-1.9596	0
355.886	-0.1765	-1.95963	0
355.999	-0.173828	-1.95965	0
356.108	-0.180013	-1.95959	0
356.235	-0.175393	-1.95963	0
356.327	-0.168713	-1.95961	0
356.66	-0.165754	-1.95963	0
356.777	-0.158901	-1.95966	0
356.938	-0.160982	-1.95959	0
357.078	-0.159092	-1.95966	0
357.344	-0.154645	-1.95965	0
357.55	-0.148842	-1.95963	0
357.883	-0.146647	-1.95959	0
358.112	-0.142467	-1.95962	0
358.419	-0.133858	-1.95963	0
358.921	-0.128189	-1.95965	0
359.974	-0.12189	-1.95965	0
361.963	-0.119733	-1.95962	0
363.917	-0.121757	-1.95961	0
365.625	-0.12586	-1.95961	0
367.595	-0.127846	-1.95969	0
369.083	-0.125918	-1.95962	0
370.95	-0.127559	-1.95967	0
372.422	-0.129468	-1.95965	0
373.826	-0.133209	-1.95965	0
375.076	-0.135271	-1.95966	0
376.915	-0.139184	-1.95963	0
378.108	-0.143173	-1.95969	0
380.421	-0.145101	-1.95969	0
381.675	-0.1493	-1.95961	0
383.082	-0.153461	-1.95965	0
383.816	-0.155733	-1.95967	0
384.935	-0.161841	-1.95964	0
385.969	-0.165945	-1.95966	0
386.924	-0.174401	-1.95966	0
387.527	-0.17148	-1.95965	0
388.632	-0.177875	-1.95965	0
389.742	-0.18007	-1.95962	0
390.322	-0.177168	-1.95968	0
391.203	-0.170831	-1.95966	0
391.857	-0.164265	-1.95958	0
392.382	-0.170526	-1.95965	0
393.08	-0.168197	-1.95961	0
393.676	-0.165697	-1.95964	0
394.497	-0.165277	-1.95963	0
395.641	-0.164933	-1.95965	0
396.022	-0.160906	-1.95962	0
396.668	-0.160715	-1.95961	0
397.377	-0.160409	-1.95965	0
397.85	-0.1514	-1.95959	0
398.684	-0.142161	-1.95964	0
399.761	-0.139336	-1.95963	0
400.787	-0.143536	-1.95968	0
401.782	-0.144452	-1.95964	0
402.883	-0.138268	-1.95965	0
405.202	-0.136206	-1.95965	0
406.075	-0.135748	-1.9596	0
406.8	-0.137848	-1.95966	0
407.846	-0.144528	-1.95963	0
408.566	-0.146456	-1.95965	0
409.492	-0.14638	-1.9596	0
410.427	-0.134278	-1.95966	0
411.199	-0.138268	-1.95964	0
412.137	-0.142295	-1.95962	0
412.595	-0.146303	-1.95962	0
412.73	-0.146208	-1.95964	0
412.955	-0.14575	-1.95967	0
413.017	-0.145635	-1.95958	0
413.18	-0.145616	-1.95965	0
413.628	-0.147525	-1.95965	0
414.478	-0.140692	-1.95967	0
415.333	-0.135805	-1.95969	0
416.285	-0.135939	-1.95963	0
417.254	-0.136359	-1.95963	0
418.26	-0.141016	-1.95969	0
419.423	-0.142887	-1.95965	0
421.105	-0.146781	-1.95961	0
422.458	-0.153003	-1.95967	0
424.467	-0.152297	-1.95968	0
426.987	-0.149567	-1.95967	0
427.855	-0.157852	-1.95963	0
428.635	-0.162108	-1.9597	0
429.23	-0.16396	-1.95965	0
430.109	-0.163788	-1.95963	0
431.173	-0.165792	-1.95969	0
432.209	-0.170411	-1.95971	0
433.914	-0.1765	-1.95963	0
434.844	-0.180604	-1.95969	0
435.564	-0.180337	-1.95959	0
436.964	-0.178829	-1.95965	0
437.707	-0.187132	-1.9596	0
438.111	-0.181673	-1.95964	0
439.101	-0.175012	-1.95966	0
440.427	-0.176978	-1.95962	0
442.079	-0.173542	-1.95966	0
442.6	-0.17148	-1.95963	0
442.757	-0.171557	-1.95965	0
442.891	-0.173294	-1.95961	0
442.938	-0.175622	-1.95959	0
443.201	-0.178333	-1.9597	0
443.729	-0.183124	-1.95967	0
444.197	-0.185892	-1.95966	0
444.877	-0.185128	-1.95969	0
445.326	-0.187304	-1.95967	0
446.386	-0.188965	-1.95964	0
446.616	-0.191503	-1.95967	0