File: EXPERIMENTAL-DATA/Cycling-data-Master-thesis/I-cell/2024-04-26_JP-measurements_sample-A6-02_M-cell_Cu-Li-Cellgard2400-separator_25muL-LiFSI-in-DME_outside-glovebox_sigma-0.02_added-OCV-0.1s_Deltax110.1mm_02_MB_C02.txt
time/s	Ewe/V	I/mA	error
60.053	3.05844	-0.0250311	0
60.1732	0.00944676	-14.6245	0
60.1736	0.00931314	-14.5577	0
60.174	0.00937041	-14.4883	0
60.1744	0.00948494	-14.4215	0
60.1748	0.00937041	-14.3515	0
60.1752	0.00944676	-14.2809	0
60.1756	0.00931314	-14.2115	0
60.176	0.00937041	-14.153	0
60.1764	0.00935132	-14.0874	0
60.1768	0.00937041	-14.0174	0
60.1772	0.00931314	-13.9506	0
60.1776	0.00940858	-13.8825	0
60.178	0.00931314	-13.8259	0
60.1784	0.00937041	-13.7616	0
60.1788	0.00933223	-13.6967	0
60.1792	0.00952311	-13.6362	0
60.1796	0.00944676	-13.5745	0
60.18	0.00940858	-13.5108	0
60.1804	0.00929405	-13.4548	0
60.1808	0.00946585	-13.3944	0
60.1812	0.00944676	-13.3327	0
60.1816	0.00933223	-13.2684	0
60.1822	0.0093895	-13.1946	0
60.1826	0.00937041	-13.1341	0
60.183	0.00944676	-13.0705	0
60.1834	0.00935132	-13.0151	0
60.1838	0.0093895	-12.9553	0
60.1842	0.00937041	-12.9018	0
60.1846	0.00929405	-12.8395	0
60.1852	0.00935132	-12.758	0
60.1858	0.00940858	-12.681	0
60.1862	0.00946585	-12.6282	0
60.1866	0.00944676	-12.5779	0
60.187	0.00937041	-12.5225	0
60.1876	0.0093895	-12.4405	0
60.1882	0.00948494	-12.3641	0
60.1886	0.00946585	-12.3125	0
60.1892	0.0093895	-12.24	0
60.1898	0.00948494	-12.1668	0
60.1902	0.00940858	-12.1121	0
60.1908	0.00935132	-12.0453	0
60.1912	0.00927497	-11.9924	0
60.1918	0.00942767	-11.9167	0
60.1922	0.00940858	-11.8652	0
60.1928	0.00942767	-11.7945	0
60.1934	0.00942767	-11.7302	0
60.194	0.00937041	-11.6583	0
60.1946	0.00940858	-11.5864	0
60.1952	0.00933223	-11.5234	0
60.1958	0.00933223	-11.4477	0
60.1964	0.00935132	-11.3809	0
60.197	0.00944676	-11.3121	0
60.1976	0.00940858	-11.2504	0
60.1982	0.0093895	-11.1804	0
60.1988	0.00937041	-11.1187	0
60.1994	0.0093895	-11.0614	0
60.2	0.00948494	-10.9927	0
60.2006	0.00944676	-10.9322	0
60.2012	0.0093895	-10.8629	0
60.2018	0.00933223	-10.8081	0
60.2024	0.0093895	-10.7375	0
60.203	0.00935132	-10.6828	0
60.2036	0.00940858	-10.6217	0
60.2042	0.00933223	-10.5587	0
60.2048	0.00933223	-10.5033	0
60.2054	0.00940858	-10.4505	0
60.206	0.00944676	-10.3843	0
60.2066	0.00942767	-10.3238	0
60.2072	0.00929405	-10.2729	0
60.2078	0.00940858	-10.2163	0
60.2084	0.0093895	-10.1552	0
60.2092	0.00946585	-10.0839	0
60.2098	0.00948494	-10.0292	0
60.2104	0.00935132	-9.97002	0
60.211	0.00937041	-9.91974	0
60.2118	0.00937041	-9.85356	0
60.2124	0.0093895	-9.79883	0
60.213	0.00935132	-9.74347	0
60.2138	0.00946585	-9.67919	0
60.2144	0.00933223	-9.62637	0
60.215	0.00931314	-9.57228	0
60.2156	0.00946585	-9.51628	0
60.2164	0.0095422	-9.45964	0
60.217	0.00937041	-9.40618	0
60.2178	0.00942767	-9.34191	0
60.2184	0.00940858	-9.28782	0
60.2192	0.0093895	-9.23054	0
60.2198	0.00942767	-9.17963	0
60.2206	0.00946585	-9.11472	0
60.2214	0.0093895	-9.05808	0
60.2222	0.00948494	-8.99508	0
60.223	0.0093895	-8.94035	0
60.2238	0.00944676	-8.87035	0
60.2246	0.00937041	-8.81753	0
60.2254	0.00940858	-8.76217	0
60.2262	0.00948494	-8.69725	0
60.2272	0.00946585	-8.62662	0
60.2282	0.00944676	-8.56234	0
60.229	0.00944676	-8.50634	0
60.2298	0.00937041	-8.44906	0
60.2308	0.00942767	-8.38861	0
60.2316	0.00937041	-8.33515	0
60.2324	0.00940858	-8.28042	0
60.2332	0.00931314	-8.22697	0
60.2342	0.00946585	-8.17033	0
60.2352	0.00931314	-8.10669	0
60.236	0.00935132	-8.04814	0
60.237	0.00946585	-7.9966	0
60.2378	0.00940858	-7.9406	0
60.2388	0.00937041	-7.88459	0
60.2398	0.00937041	-7.82923	0
60.2408	0.00942767	-7.76304	0
60.2418	0.00927497	-7.71277	0
60.2428	0.00942767	-7.66186	0
60.2436	0.00944676	-7.60777	0
60.2446	0.00956129	-7.55686	0
60.2456	0.00944676	-7.50531	0
60.2466	0.00935132	-7.44676	0
60.2478	0.00950403	-7.39013	0
60.249	0.0093895	-7.32776	0
60.2502	0.00942767	-7.26794	0
60.2512	0.00944676	-7.21385	0
60.2524	0.0093895	-7.16294	0
60.2536	0.00940858	-7.10375	0
60.2548	0.00942767	-7.05157	0
60.2558	0.00944676	-6.99621	0
60.257	0.00935132	-6.93893	0
60.2584	0.00942767	-6.87975	0
60.2596	0.0093895	-6.82884	0
60.2608	0.00935132	-6.77856	0
60.262	0.00935132	-6.72638	0
60.263	0.0093895	-6.67611	0
60.2644	0.00940858	-6.62201	0
60.2658	0.00946585	-6.56728	0
60.2672	0.0093895	-6.5081	0
60.2686	0.00942767	-6.45274	0
60.2702	0.00946585	-6.39673	0
60.2714	0.00940858	-6.34582	0
60.273	0.00937041	-6.29237	0
60.2742	0.00935132	-6.23764	0
60.2758	0.00933223	-6.18482	0
60.2774	0.00931314	-6.13264	0
60.279	0.00944676	-6.07663	0
60.2806	0.00933223	-6.02318	0
60.2822	0.00950403	-5.97036	0
60.2836	0.00933223	-5.91436	0
60.2856	0.00948494	-5.86026	0
60.2872	0.00946585	-5.8049	0
60.2888	0.00927497	-5.75272	0
60.2908	0.00929405	-5.69926	0
60.2924	0.00944676	-5.64835	0
60.2942	0.00944676	-5.59617	0
60.296	0.00942767	-5.54462	0
60.2978	0.00950403	-5.49244	0
60.2998	0.00927497	-5.43389	0
60.302	0.00935132	-5.3798	0
60.304	0.00937041	-5.32507	0
60.3062	0.00950403	-5.26652	0
60.3082	0.0095422	-5.2137	0
60.3106	0.0093895	-5.15961	0
60.313	0.0093895	-5.10233	0
60.3154	0.00929405	-5.04888	0
60.3176	0.0093895	-4.99415	0
60.3198	0.00940858	-4.94006	0
60.3222	0.00937041	-4.88469	0
60.3248	0.00942767	-4.83314	0
60.3274	0.0093895	-4.77842	0
60.3302	0.00948494	-4.7256	0
60.3328	0.00937041	-4.67341	0
60.3356	0.0093895	-4.61868	0
60.338	0.0093895	-4.56777	0
60.341	0.00933223	-4.50986	0
60.344	0.00933223	-4.45768	0
60.3472	0.00944676	-4.39977	0
60.3508	0.00937041	-4.34504	0
60.354	0.00944676	-4.2884	0
60.3574	0.00937041	-4.23813	0
60.3608	0.00935132	-4.18785	0
60.3642	0.00931314	-4.13122	0
60.3678	0.00946585	-4.07967	0
60.3716	0.00942767	-4.02939	0
60.3732	0.00946585	-4.07966	0
60.4034	0.00940858	-3.66094	0
60.4084	0.00935132	-3.60927	0
60.4134	0.00935132	-3.55927	0
60.4186	0.00937041	-3.50786	0
60.424	0.00935132	-3.45658	0
60.4296	0.00937041	-3.40606	0
60.4354	0.0093895	-3.3556	0
60.4416	0.0093895	-3.30413	0
60.448	0.00940858	-3.25196	0
60.4548	0.00942767	-3.20144	0
60.4616	0.00940858	-3.15003	0
60.4688	0.0093895	-3.09856	0
60.4764	0.00950403	-3.04753	0
60.484	0.00933223	-2.99727	0
60.492	0.00946585	-2.9472	0
60.5004	0.00946585	-2.89624	0
60.5092	0.00944676	-2.84597	0
60.5186	0.00933223	-2.79494	0
60.5282	0.00933223	-2.74468	0
60.5382	0.00944676	-2.69461	0
60.5486	0.00927497	-2.64384	0
60.5596	0.00937041	-2.59338	0
60.5712	0.00935132	-2.54286	0
60.5834	0.00944676	-2.49216	0
60.5962	0.00946585	-2.44145	0
60.6096	0.00942767	-2.39125	0
60.6236	0.00935132	-2.34079	0
60.6386	0.00929405	-2.29072	0
60.6544	0.00935132	-2.24039	0
60.6714	0.00940858	-2.18841	0
60.6894	0.00937041	-2.1377	0
60.7084	0.00940858	-2.08668	0
60.7288	0.0093895	-2.03667	0
60.7498	0.00944676	-1.98666	0
60.773	0.00942767	-1.93665	0
60.7976	0.00944676	-1.88658	0
60.8236	0.00940858	-1.8365	0
60.8526	0.00933223	-1.78643	0
60.8832	0.00933223	-1.73611	0
60.917	0.00935132	-1.68591	0
60.9536	0.00948494	-1.63564	0
60.9938	0.00929405	-1.58532	0
61.0372	0.0093895	-1.53524	0
61.0866	0.00950403	-1.48415	0
61.1402	0.00931314	-1.43389	0
61.2002	0.00937041	-1.38286	0
61.2668	0.00948494	-1.33285	0
61.3412	0.0093895	-1.28259	0
61.4258	0.00940858	-1.23258	0
61.5202	0.0093895	-1.18244	0
61.6288	0.00937041	-1.13218	0
61.7552	0.00948494	-1.08205	0
61.9018	0.00942767	-1.03172	0
62.0744	0.00942767	-0.981582	0
62.2788	0.00929405	-0.931128	0
62.526	0.00940858	-0.880483	0
62.8328	0.0093895	-0.829965	0
63.2056	0.00944676	-0.779956	0
63.6724	0.00944676	-0.729565	0
64.2744	0.00940858	-0.679556	0
65.041	0.0093895	-0.629166	0
65.0528	0.0093895	-0.630375	0
65.0534	0.00942767	-0.629993	0
66.0424	0.00942767	-0.579411	0
67.3916	0.00942767	-0.529148	0
69.2014	0.0093895	-0.478885	0
71.8188	0.00937041	-0.428846	0
75.2842	0.00937041	-0.3788	0
80.321	0.00933223	-0.328759	0
87.8678	0.00946585	-0.278719	0
97.8678	0.00940858	-0.234783	0
107.868	0.00935132	-0.203477	0
117.868	0.00931314	-0.17993	0
127.868	0.00937041	-0.161775	0
137.868	0.00929405	-0.147382	0
147.868	0.00931314	-0.135167	0
157.868	0.00931314	-0.124994	0
167.868	0.0093895	-0.116719	0
177.868	0.00940858	-0.109227	0
187.868	0.00937041	-0.102625	0
197.868	0.0093895	-0.0966481	0
207.868	0.00931314	-0.0916192	0
217.868	0.00933223	-0.0871378	0
227.868	0.00944676	-0.0831719	0
237.868	0.00925588	-0.0791043	0
247.868	0.00940858	-0.0756541	0
257.868	0.00929405	-0.0723567	0
267.868	0.0093895	-0.0694094	0
277.868	0.00931314	-0.0668886	0
287.868	0.0093895	-0.0640495	0
297.868	0.00937041	-0.0619807	0
307.868	0.00937041	-0.0597081	0
317.868	0.00929405	-0.0577793	0
327.868	0.00935132	-0.0558506	0
337.868	0.00940858	-0.0542591	0
347.868	0.0093895	-0.0524131	0
357.868	0.00940858	-0.0507262	0
367.868	0.00935132	-0.0491475	0
377.868	0.00929405	-0.0481099	0
387.868	0.0093895	-0.0463403	0
397.868	0.00937041	-0.0450289	0
407.868	0.00931314	-0.044089	0
417.868	0.00931314	-0.0427336	0
427.868	0.00929405	-0.0416213	0
437.868	0.00944676	-0.0406674	0
447.868	0.00935132	-0.0396753	0
451.773	0.00933223	-0.0392344	0
451.774	0.00937041	-0.0393292	0